# Version 2.1 - nm, norm@500 to 1, cut digits, bergeron_6500_80.dat_6500
# Wavelength(nm)  Flambda(ergs/cm^s/s/nm)
300.00 0.8859
300.10 0.8863
300.20 0.8867
300.30 0.8871
300.40 0.8875
300.50 0.888
300.60 0.8884
300.70 0.8888
300.80 0.8892
300.90 0.8896
301.00 0.89
301.10 0.8904
301.20 0.8909
301.30 0.8913
301.40 0.8917
301.50 0.8921
301.60 0.8925
301.70 0.8929
301.80 0.8933
301.90 0.8937
302.00 0.8941
302.10 0.8945
302.20 0.8949
302.30 0.8953
302.40 0.8957
302.50 0.8962
302.60 0.8966
302.70 0.897
302.80 0.8974
302.90 0.8978
303.00 0.8982
303.10 0.8986
303.20 0.899
303.30 0.8994
303.40 0.8998
303.50 0.9002
303.60 0.9006
303.70 0.901
303.80 0.9014
303.90 0.9018
304.00 0.9022
304.10 0.9026
304.20 0.903
304.30 0.9034
304.40 0.9038
304.50 0.9041
304.60 0.9045
304.70 0.9049
304.80 0.9053
304.90 0.9057
305.00 0.9061
305.10 0.9065
305.20 0.9069
305.30 0.9073
305.40 0.9077
305.50 0.9081
305.60 0.9085
305.70 0.9089
305.80 0.9093
305.90 0.9096
306.00 0.91
306.10 0.9104
306.20 0.9108
306.30 0.9112
306.40 0.9116
306.50 0.912
306.60 0.9123
306.70 0.9127
306.80 0.9131
306.90 0.9135
307.00 0.9139
307.10 0.9143
307.20 0.9146
307.30 0.915
307.40 0.9154
307.50 0.9158
307.60 0.9162
307.70 0.9165
307.80 0.9169
307.90 0.9173
308.00 0.9177
308.10 0.9181
308.20 0.9184
308.30 0.9188
308.40 0.9192
308.50 0.9196
308.60 0.9199
308.70 0.9203
308.80 0.9207
308.90 0.9211
309.00 0.9214
309.10 0.9218
309.20 0.9222
309.30 0.9226
309.40 0.9229
309.50 0.9233
309.60 0.9237
309.70 0.924
309.80 0.9244
309.90 0.9248
310.00 0.9251
310.10 0.9255
310.20 0.9259
310.30 0.9262
310.40 0.9266
310.50 0.927
310.60 0.9273
310.70 0.9277
310.80 0.9281
310.90 0.9284
311.00 0.9288
311.10 0.9292
311.20 0.9295
311.30 0.9299
311.40 0.9303
311.50 0.9306
311.60 0.931
311.70 0.9313
311.80 0.9317
311.90 0.9321
312.00 0.9324
312.10 0.9328
312.20 0.9331
312.30 0.9335
312.40 0.9338
312.50 0.9342
312.60 0.9345
312.70 0.9349
312.80 0.9352
312.90 0.9356
313.00 0.936
313.10 0.9363
313.20 0.9367
313.30 0.937
313.40 0.9374
313.50 0.9377
313.60 0.9381
313.70 0.9384
313.80 0.9388
313.90 0.9391
314.00 0.9395
314.10 0.9398
314.20 0.9402
314.30 0.9405
314.40 0.9409
314.50 0.9412
314.60 0.9415
314.70 0.9419
314.80 0.9422
314.90 0.9426
315.00 0.9429
315.10 0.9433
315.20 0.9436
315.30 0.944
315.40 0.9443
315.50 0.9446
315.60 0.945
315.70 0.9453
315.80 0.9457
315.90 0.946
316.00 0.9463
316.10 0.9467
316.20 0.947
316.30 0.9473
316.40 0.9477
316.50 0.948
316.60 0.9484
316.70 0.9487
316.80 0.949
316.90 0.9494
317.00 0.9497
317.10 0.95
317.20 0.9504
317.30 0.9507
317.40 0.951
317.50 0.9514
317.60 0.9517
317.70 0.952
317.80 0.9524
317.90 0.9527
318.00 0.953
318.10 0.9533
318.20 0.9537
318.30 0.954
318.40 0.9543
318.50 0.9547
318.60 0.955
318.70 0.9553
318.80 0.9556
318.90 0.956
319.00 0.9563
319.10 0.9566
319.20 0.9569
319.30 0.9572
319.40 0.9576
319.50 0.9579
319.60 0.9582
319.70 0.9585
319.80 0.9588
319.90 0.9592
320.00 0.9595
320.10 0.9598
320.20 0.9601
320.30 0.9604
320.40 0.9608
320.50 0.9611
320.60 0.9614
320.70 0.9617
320.80 0.962
320.90 0.9623
321.00 0.9627
321.10 0.963
321.20 0.9633
321.30 0.9636
321.40 0.9639
321.50 0.9642
321.60 0.9645
321.70 0.9648
321.80 0.9651
321.90 0.9655
322.00 0.9658
322.10 0.9661
322.20 0.9664
322.30 0.9667
322.40 0.967
322.50 0.9673
322.60 0.9676
322.70 0.9679
322.80 0.9682
322.90 0.9685
323.00 0.9688
323.10 0.9691
323.20 0.9694
323.30 0.9697
323.40 0.9701
323.50 0.9704
323.60 0.9707
323.70 0.971
323.80 0.9713
323.90 0.9716
324.00 0.9719
324.10 0.9722
324.20 0.9725
324.30 0.9728
324.40 0.973
324.50 0.9733
324.60 0.9736
324.70 0.9739
324.80 0.9742
324.90 0.9745
325.00 0.9748
325.10 0.9751
325.20 0.9754
325.30 0.9757
325.40 0.976
325.50 0.9763
325.60 0.9766
325.70 0.9769
325.80 0.9772
325.90 0.9775
326.00 0.9777
326.10 0.978
326.20 0.9783
326.30 0.9786
326.40 0.9789
326.50 0.9792
326.60 0.9795
326.70 0.9798
326.80 0.98
326.90 0.9803
327.00 0.9806
327.10 0.9809
327.20 0.9812
327.30 0.9815
327.40 0.9818
327.50 0.982
327.60 0.9823
327.70 0.9826
327.80 0.9829
327.90 0.9832
328.00 0.9834
328.10 0.9837
328.20 0.984
328.30 0.9843
328.40 0.9846
328.50 0.9848
328.60 0.9851
328.70 0.9854
328.80 0.9857
328.90 0.986
329.00 0.9862
329.10 0.9865
329.20 0.9868
329.30 0.9871
329.40 0.9873
329.50 0.9876
329.60 0.9879
329.70 0.9882
329.80 0.9884
329.90 0.9887
330.00 0.989
330.10 0.9892
330.20 0.9895
330.30 0.9898
330.40 0.9901
330.50 0.9903
330.60 0.9906
330.70 0.9909
330.80 0.9911
330.90 0.9914
331.00 0.9917
331.10 0.9919
331.20 0.9922
331.30 0.9925
331.40 0.9927
331.50 0.993
331.60 0.9932
331.70 0.9935
331.80 0.9938
331.90 0.994
332.00 0.9943
332.10 0.9946
332.20 0.9948
332.30 0.9951
332.40 0.9953
332.50 0.9956
332.60 0.9959
332.70 0.9961
332.80 0.9964
332.90 0.9966
333.00 0.9969
333.10 0.9972
333.20 0.9974
333.30 0.9977
333.40 0.9979
333.50 0.9982
333.60 0.9984
333.70 0.9987
333.80 0.9989
333.90 0.9992
334.00 0.9994
334.10 0.9997
334.20 1
334.30 1
334.40 1
334.50 1.001
334.60 1.001
334.70 1.001
334.80 1.001
334.90 1.002
335.00 1.002
335.10 1.002
335.20 1.002
335.30 1.003
335.40 1.003
335.50 1.003
335.60 1.003
335.70 1.004
335.80 1.004
335.90 1.004
336.00 1.004
336.10 1.005
336.20 1.005
336.30 1.005
336.40 1.005
336.50 1.006
336.60 1.006
336.70 1.006
336.80 1.006
336.90 1.007
337.00 1.007
337.10 1.007
337.20 1.007
337.30 1.008
337.40 1.008
337.50 1.008
337.60 1.008
337.70 1.008
337.80 1.009
337.90 1.009
338.00 1.009
338.10 1.009
338.20 1.01
338.30 1.01
338.40 1.01
338.50 1.01
338.60 1.011
338.70 1.011
338.80 1.011
338.90 1.011
339.00 1.011
339.10 1.012
339.20 1.012
339.30 1.012
339.40 1.012
339.50 1.013
339.60 1.013
339.70 1.013
339.80 1.013
339.90 1.014
340.00 1.014
340.10 1.014
340.20 1.014
340.30 1.014
340.40 1.015
340.50 1.015
340.60 1.015
340.70 1.015
340.80 1.016
340.90 1.016
341.00 1.016
341.10 1.016
341.20 1.016
341.30 1.017
341.40 1.017
341.50 1.017
341.60 1.017
341.70 1.018
341.80 1.018
341.90 1.018
342.00 1.018
342.10 1.018
342.20 1.019
342.30 1.019
342.40 1.019
342.50 1.019
342.60 1.019
342.70 1.02
342.80 1.02
342.90 1.02
343.00 1.02
343.10 1.021
343.20 1.021
343.30 1.021
343.40 1.021
343.50 1.021
343.60 1.022
343.70 1.022
343.80 1.022
343.90 1.022
344.00 1.022
344.10 1.023
344.20 1.023
344.30 1.023
344.40 1.023
344.50 1.023
344.60 1.024
344.70 1.024
344.80 1.024
344.90 1.024
345.00 1.024
345.10 1.025
345.20 1.025
345.30 1.025
345.40 1.025
345.50 1.025
345.60 1.026
345.70 1.026
345.80 1.026
345.90 1.026
346.00 1.026
346.10 1.027
346.20 1.027
346.30 1.027
346.40 1.027
346.50 1.027
346.60 1.028
346.70 1.028
346.80 1.028
346.90 1.028
347.00 1.028
347.10 1.029
347.20 1.029
347.30 1.029
347.40 1.029
347.50 1.029
347.60 1.03
347.70 1.03
347.80 1.03
347.90 1.03
348.00 1.03
348.10 1.031
348.20 1.031
348.30 1.031
348.40 1.031
348.50 1.031
348.60 1.031
348.70 1.032
348.80 1.032
348.90 1.032
349.00 1.032
349.10 1.032
349.20 1.033
349.30 1.033
349.40 1.033
349.50 1.033
349.60 1.033
349.70 1.034
349.80 1.034
349.90 1.034
350.00 1.034
350.10 1.034
350.20 1.034
350.30 1.035
350.40 1.035
350.50 1.035
350.60 1.035
350.70 1.035
350.80 1.036
350.90 1.036
351.00 1.036
351.10 1.036
351.20 1.036
351.30 1.036
351.40 1.037
351.50 1.037
351.60 1.037
351.70 1.037
351.80 1.037
351.90 1.037
352.00 1.038
352.10 1.038
352.20 1.038
352.30 1.038
352.40 1.038
352.50 1.038
352.60 1.039
352.70 1.039
352.80 1.039
352.90 1.039
353.00 1.039
353.10 1.039
353.20 1.04
353.30 1.04
353.40 1.04
353.50 1.04
353.60 1.04
353.70 1.04
353.80 1.041
353.90 1.041
354.00 1.041
354.10 1.041
354.20 1.041
354.30 1.041
354.40 1.042
354.50 1.042
354.60 1.042
354.70 1.042
354.80 1.042
354.90 1.042
355.00 1.043
355.10 1.043
355.20 1.043
355.30 1.043
355.40 1.043
355.50 1.043
355.60 1.044
355.70 1.044
355.80 1.044
355.90 1.044
356.00 1.044
356.10 1.044
356.20 1.045
356.30 1.045
356.40 1.045
356.50 1.045
356.60 1.045
356.70 1.045
356.80 1.045
356.90 1.046
357.00 1.046
357.10 1.046
357.20 1.046
357.30 1.046
357.40 1.046
357.50 1.047
357.60 1.047
357.70 1.047
357.80 1.047
357.90 1.047
358.00 1.047
358.10 1.047
358.20 1.048
358.30 1.048
358.40 1.048
358.50 1.048
358.60 1.048
358.70 1.048
358.80 1.048
358.90 1.049
359.00 1.049
359.10 1.049
359.20 1.049
359.30 1.049
359.40 1.049
359.50 1.049
359.60 1.05
359.70 1.05
359.80 1.05
359.90 1.05
360.00 1.05
360.10 1.05
360.20 1.05
360.30 1.051
360.40 1.051
360.50 1.051
360.60 1.051
360.70 1.051
360.80 1.051
360.90 1.051
361.00 1.052
361.10 1.052
361.20 1.052
361.30 1.052
361.40 1.052
361.50 1.052
361.60 1.052
361.70 1.052
361.80 1.053
361.90 1.053
362.00 1.053
362.10 1.053
362.20 1.053
362.30 1.053
362.40 1.053
362.50 1.054
362.60 1.054
362.70 1.054
362.80 1.054
362.90 1.054
363.00 1.054
363.10 1.054
363.20 1.054
363.30 1.055
363.40 1.055
363.50 1.055
363.60 1.055
363.70 1.055
363.80 1.055
363.90 1.055
364.00 1.055
364.10 1.056
364.20 1.056
364.30 1.056
364.40 1.056
364.50 1.056
364.60 1.056
364.70 1.056
364.80 1.056
364.90 1.056
365.00 1.057
365.10 1.057
365.20 1.057
365.30 1.057
365.40 1.057
365.50 1.057
365.60 1.057
365.70 1.057
365.80 1.058
365.90 1.058
366.00 1.058
366.10 1.058
366.20 1.058
366.30 1.058
366.40 1.058
366.50 1.058
366.60 1.058
366.70 1.059
366.80 1.059
366.90 1.059
367.00 1.059
367.10 1.059
367.20 1.059
367.30 1.059
367.40 1.059
367.50 1.059
367.60 1.06
367.70 1.06
367.80 1.06
367.90 1.06
368.00 1.06
368.10 1.06
368.20 1.06
368.30 1.06
368.40 1.06
368.50 1.061
368.60 1.061
368.70 1.061
368.80 1.061
368.90 1.061
369.00 1.061
369.10 1.061
369.20 1.061
369.30 1.061
369.40 1.062
369.50 1.062
369.60 1.062
369.70 1.062
369.80 1.062
369.90 1.062
370.00 1.062
370.10 1.062
370.20 1.062
370.30 1.062
370.40 1.063
370.50 1.063
370.60 1.063
370.70 1.063
370.80 1.063
370.90 1.063
371.00 1.063
371.10 1.063
371.20 1.063
371.30 1.063
371.40 1.064
371.50 1.064
371.60 1.064
371.70 1.064
371.80 1.064
371.90 1.064
372.00 1.064
372.10 1.064
372.20 1.064
372.30 1.064
372.40 1.065
372.50 1.065
372.60 1.065
372.70 1.065
372.80 1.065
372.90 1.065
373.00 1.065
373.10 1.065
373.20 1.065
373.30 1.065
373.40 1.066
373.50 1.066
373.60 1.066
373.70 1.066
373.80 1.066
373.90 1.066
374.00 1.066
374.10 1.066
374.20 1.066
374.30 1.066
374.40 1.067
374.50 1.067
374.60 1.067
374.70 1.067
374.80 1.067
374.90 1.067
375.00 1.067
375.10 1.067
375.20 1.067
375.30 1.068
375.40 1.068
375.50 1.068
375.60 1.068
375.70 1.068
375.80 1.068
375.90 1.068
376.00 1.068
376.10 1.068
376.20 1.069
376.30 1.069
376.40 1.069
376.50 1.069
376.60 1.069
376.70 1.069
376.80 1.069
376.90 1.069
377.00 1.07
377.10 1.07
377.20 1.07
377.30 1.07
377.40 1.07
377.50 1.07
377.60 1.07
377.70 1.07
377.80 1.071
377.90 1.071
378.00 1.071
378.10 1.071
378.20 1.071
378.30 1.071
378.40 1.071
378.50 1.071
378.60 1.071
378.70 1.071
378.80 1.071
378.90 1.071
379.00 1.071
379.10 1.07
379.20 1.07
379.30 1.07
379.40 1.07
379.50 1.069
379.60 1.069
379.70 1.069
379.80 1.069
379.90 1.068
380.00 1.068
380.10 1.069
380.20 1.069
380.30 1.07
380.40 1.071
380.50 1.071
380.60 1.072
380.70 1.073
380.80 1.073
380.90 1.074
381.00 1.075
381.10 1.075
381.20 1.075
381.30 1.075
381.40 1.076
381.50 1.076
381.60 1.076
381.70 1.076
381.80 1.076
381.90 1.076
382.00 1.076
382.10 1.076
382.20 1.076
382.30 1.075
382.40 1.074
382.50 1.073
382.60 1.072
382.70 1.07
382.80 1.069
382.90 1.068
383.00 1.067
383.10 1.066
383.20 1.065
383.30 1.062
383.40 1.057
383.50 1.048
383.60 1.051
383.70 1.059
383.80 1.064
383.90 1.067
384.00 1.07
384.10 1.072
384.20 1.074
384.30 1.075
384.40 1.076
384.50 1.077
384.60 1.078
384.70 1.079
384.80 1.079
384.90 1.08
385.00 1.08
385.10 1.081
385.20 1.081
385.30 1.081
385.40 1.082
385.50 1.082
385.60 1.082
385.70 1.082
385.80 1.083
385.90 1.083
386.00 1.083
386.10 1.083
386.20 1.083
386.30 1.083
386.40 1.083
386.50 1.083
386.60 1.083
386.70 1.083
386.80 1.083
386.90 1.083
387.00 1.083
387.10 1.083
387.20 1.082
387.30 1.082
387.40 1.082
387.50 1.081
387.60 1.081
387.70 1.08
387.80 1.079
387.90 1.077
388.00 1.076
388.10 1.074
388.20 1.071
388.30 1.068
388.40 1.063
388.50 1.057
388.60 1.05
388.70 1.039
388.80 1.022
388.90 0.9986
389.00 1.021
389.10 1.038
389.20 1.05
389.30 1.057
389.40 1.063
389.50 1.068
389.60 1.072
389.70 1.075
389.80 1.078
389.90 1.079
390.00 1.081
390.10 1.082
390.20 1.083
390.30 1.084
390.40 1.085
390.50 1.085
390.60 1.086
390.70 1.086
390.80 1.087
390.90 1.087
391.00 1.088
391.10 1.088
391.20 1.088
391.30 1.088
391.40 1.088
391.50 1.089
391.60 1.089
391.70 1.089
391.80 1.089
391.90 1.089
392.00 1.089
392.10 1.09
392.20 1.09
392.30 1.09
392.40 1.09
392.50 1.09
392.60 1.09
392.70 1.09
392.80 1.09
392.90 1.09
393.00 1.09
393.10 1.09
393.20 1.09
393.30 1.09
393.40 1.09
393.50 1.09
393.60 1.09
393.70 1.09
393.80 1.09
393.90 1.09
394.00 1.09
394.10 1.09
394.20 1.09
394.30 1.09
394.40 1.09
394.50 1.09
394.60 1.09
394.70 1.089
394.80 1.089
394.90 1.089
395.00 1.089
395.10 1.088
395.20 1.088
395.30 1.087
395.40 1.087
395.50 1.086
395.60 1.085
395.70 1.084
395.80 1.082
395.90 1.08
396.00 1.078
396.10 1.075
396.20 1.071
396.30 1.066
396.40 1.06
396.50 1.05
396.60 1.038
396.70 1.023
396.80 0.9997
396.90 0.9632
397.00 0.9139
397.10 0.9605
397.20 0.9962
397.30 1.021
397.40 1.037
397.50 1.049
397.60 1.059
397.70 1.066
397.80 1.071
397.90 1.076
398.00 1.079
398.10 1.081
398.20 1.083
398.30 1.085
398.40 1.086
398.50 1.087
398.60 1.088
398.70 1.089
398.80 1.089
398.90 1.09
399.00 1.09
399.10 1.091
399.20 1.091
399.30 1.092
399.40 1.092
399.50 1.092
399.60 1.092
399.70 1.092
399.80 1.093
399.90 1.093
400.00 1.093
400.10 1.093
400.20 1.093
400.30 1.093
400.40 1.093
400.50 1.094
400.60 1.094
400.70 1.094
400.80 1.094
400.90 1.094
401.00 1.094
401.10 1.094
401.20 1.094
401.30 1.094
401.40 1.094
401.50 1.094
401.60 1.094
401.70 1.094
401.80 1.094
401.90 1.094
402.00 1.094
402.10 1.094
402.20 1.094
402.30 1.094
402.40 1.095
402.50 1.095
402.60 1.095
402.70 1.095
402.80 1.095
402.90 1.095
403.00 1.095
403.10 1.095
403.20 1.095
403.30 1.095
403.40 1.095
403.50 1.095
403.60 1.095
403.70 1.095
403.80 1.095
403.90 1.095
404.00 1.095
404.10 1.095
404.20 1.095
404.30 1.095
404.40 1.095
404.50 1.095
404.60 1.095
404.70 1.095
404.80 1.095
404.90 1.095
405.00 1.095
405.10 1.095
405.20 1.095
405.30 1.094
405.40 1.094
405.50 1.094
405.60 1.094
405.70 1.094
405.80 1.094
405.90 1.094
406.00 1.094
406.10 1.094
406.20 1.094
406.30 1.094
406.40 1.094
406.50 1.094
406.60 1.094
406.70 1.094
406.80 1.094
406.90 1.093
407.00 1.093
407.10 1.093
407.20 1.093
407.30 1.093
407.40 1.093
407.50 1.092
407.60 1.092
407.70 1.092
407.80 1.091
407.90 1.091
408.00 1.091
408.10 1.09
408.20 1.089
408.30 1.089
408.40 1.088
408.50 1.087
408.60 1.086
408.70 1.085
408.80 1.083
408.90 1.081
409.00 1.079
409.10 1.076
409.20 1.072
409.30 1.067
409.40 1.061
409.50 1.052
409.60 1.041
409.70 1.024
409.80 1.001
409.90 0.972
410.00 0.921
410.10 0.8643
410.20 0.8017
410.30 0.8865
410.40 0.9495
410.50 0.9906
410.60 1.014
410.70 1.034
410.80 1.048
410.90 1.057
411.00 1.064
411.10 1.07
411.20 1.074
411.30 1.077
411.40 1.08
411.50 1.082
411.60 1.084
411.70 1.085
411.80 1.086
411.90 1.087
412.00 1.088
412.10 1.089
412.20 1.089
412.30 1.09
412.40 1.09
412.50 1.091
412.60 1.091
412.70 1.091
412.80 1.092
412.90 1.092
413.00 1.092
413.10 1.092
413.20 1.092
413.30 1.092
413.40 1.093
413.50 1.093
413.60 1.093
413.70 1.093
413.80 1.093
413.90 1.093
414.00 1.093
414.10 1.093
414.20 1.093
414.30 1.093
414.40 1.093
414.50 1.093
414.60 1.093
414.70 1.093
414.80 1.093
414.90 1.093
415.00 1.093
415.10 1.093
415.20 1.093
415.30 1.093
415.40 1.093
415.50 1.093
415.60 1.093
415.70 1.093
415.80 1.093
415.90 1.093
416.00 1.093
416.10 1.093
416.20 1.093
416.30 1.093
416.40 1.093
416.50 1.093
416.60 1.093
416.70 1.093
416.80 1.093
416.90 1.093
417.00 1.093
417.10 1.093
417.20 1.093
417.30 1.093
417.40 1.093
417.50 1.093
417.60 1.093
417.70 1.093
417.80 1.093
417.90 1.093
418.00 1.093
418.10 1.093
418.20 1.093
418.30 1.093
418.40 1.093
418.50 1.093
418.60 1.093
418.70 1.093
418.80 1.092
418.90 1.092
419.00 1.092
419.10 1.092
419.20 1.092
419.30 1.092
419.40 1.092
419.50 1.092
419.60 1.092
419.70 1.092
419.80 1.092
419.90 1.092
420.00 1.092
420.10 1.092
420.20 1.092
420.30 1.092
420.40 1.092
420.50 1.092
420.60 1.092
420.70 1.092
420.80 1.092
420.90 1.092
421.00 1.092
421.10 1.092
421.20 1.091
421.30 1.091
421.40 1.091
421.50 1.091
421.60 1.091
421.70 1.091
421.80 1.091
421.90 1.091
422.00 1.091
422.10 1.091
422.20 1.091
422.30 1.091
422.40 1.091
422.50 1.091
422.60 1.091
422.70 1.091
422.80 1.091
422.90 1.091
423.00 1.091
423.10 1.091
423.20 1.09
423.30 1.09
423.40 1.09
423.50 1.09
423.60 1.09
423.70 1.09
423.80 1.09
423.90 1.09
424.00 1.09
424.10 1.09
424.20 1.09
424.30 1.09
424.40 1.09
424.50 1.09
424.60 1.09
424.70 1.09
424.80 1.09
424.90 1.089
425.00 1.089
425.10 1.089
425.20 1.089
425.30 1.089
425.40 1.089
425.50 1.089
425.60 1.089
425.70 1.089
425.80 1.089
425.90 1.089
426.00 1.089
426.10 1.089
426.20 1.089
426.30 1.089
426.40 1.088
426.50 1.088
426.60 1.088
426.70 1.088
426.80 1.088
426.90 1.088
427.00 1.088
427.10 1.088
427.20 1.088
427.30 1.088
427.40 1.088
427.50 1.088
427.60 1.088
427.70 1.087
427.80 1.087
427.90 1.087
428.00 1.087
428.10 1.087
428.20 1.087
428.30 1.087
428.40 1.087
428.50 1.087
428.60 1.087
428.70 1.087
428.80 1.086
428.90 1.086
429.00 1.086
429.10 1.086
429.20 1.086
429.30 1.086
429.40 1.086
429.50 1.086
429.60 1.085
429.70 1.085
429.80 1.085
429.90 1.085
430.00 1.085
430.10 1.085
430.20 1.085
430.30 1.084
430.40 1.084
430.50 1.084
430.60 1.084
430.70 1.084
430.80 1.083
430.90 1.083
431.00 1.083
431.10 1.082
431.20 1.082
431.30 1.082
431.40 1.081
431.50 1.081
431.60 1.08
431.70 1.08
431.80 1.079
431.90 1.079
432.00 1.078
432.10 1.077
432.20 1.076
432.30 1.075
432.40 1.073
432.50 1.072
432.60 1.07
432.70 1.067
432.80 1.064
432.90 1.061
433.00 1.056
433.10 1.051
433.20 1.043
433.30 1.035
433.40 1.022
433.50 1.004
433.60 0.9829
433.70 0.9451
433.80 0.8909
433.90 0.8204
434.00 0.6608
434.10 0.6635
434.20 0.8284
434.30 0.8963
434.40 0.9484
434.50 0.9849
434.60 1.006
434.70 1.022
434.80 1.035
434.90 1.043
435.00 1.05
435.10 1.056
435.20 1.059
435.30 1.063
435.40 1.066
435.50 1.068
435.60 1.07
435.70 1.071
435.80 1.072
435.90 1.073
436.00 1.074
436.10 1.075
436.20 1.076
436.30 1.076
436.40 1.077
436.50 1.077
436.60 1.077
436.70 1.078
436.80 1.078
436.90 1.078
437.00 1.078
437.10 1.078
437.20 1.078
437.30 1.079
437.40 1.079
437.50 1.079
437.60 1.079
437.70 1.079
437.80 1.079
437.90 1.079
438.00 1.079
438.10 1.079
438.20 1.079
438.30 1.079
438.40 1.079
438.50 1.079
438.60 1.079
438.70 1.079
438.80 1.079
438.90 1.079
439.00 1.079
439.10 1.079
439.20 1.079
439.30 1.079
439.40 1.079
439.50 1.079
439.60 1.078
439.70 1.078
439.80 1.078
439.90 1.078
440.00 1.078
440.10 1.078
440.20 1.078
440.30 1.078
440.40 1.078
440.50 1.078
440.60 1.078
440.70 1.078
440.80 1.078
440.90 1.078
441.00 1.078
441.10 1.077
441.20 1.077
441.30 1.077
441.40 1.077
441.50 1.077
441.60 1.077
441.70 1.077
441.80 1.077
441.90 1.077
442.00 1.077
442.10 1.077
442.20 1.077
442.30 1.077
442.40 1.076
442.50 1.076
442.60 1.076
442.70 1.076
442.80 1.076
442.90 1.076
443.00 1.076
443.10 1.076
443.20 1.076
443.30 1.076
443.40 1.076
443.50 1.076
443.60 1.075
443.70 1.075
443.80 1.075
443.90 1.075
444.00 1.075
444.10 1.075
444.20 1.075
444.30 1.075
444.40 1.075
444.50 1.075
444.60 1.075
444.70 1.074
444.80 1.074
444.90 1.074
445.00 1.074
445.10 1.074
445.20 1.074
445.30 1.074
445.40 1.074
445.50 1.074
445.60 1.074
445.70 1.074
445.80 1.073
445.90 1.073
446.00 1.073
446.10 1.073
446.20 1.073
446.30 1.073
446.40 1.073
446.50 1.073
446.60 1.073
446.70 1.073
446.80 1.072
446.90 1.072
447.00 1.072
447.10 1.072
447.20 1.072
447.30 1.072
447.40 1.072
447.50 1.072
447.60 1.072
447.70 1.072
447.80 1.071
447.90 1.071
448.00 1.071
448.10 1.071
448.20 1.071
448.30 1.071
448.40 1.071
448.50 1.071
448.60 1.071
448.70 1.071
448.80 1.07
448.90 1.07
449.00 1.07
449.10 1.07
449.20 1.07
449.30 1.07
449.40 1.07
449.50 1.07
449.60 1.07
449.70 1.07
449.80 1.069
449.90 1.069
450.00 1.069
450.10 1.069
450.20 1.069
450.30 1.069
450.40 1.069
450.50 1.069
450.60 1.069
450.70 1.069
450.80 1.068
450.90 1.068
451.00 1.068
451.10 1.068
451.20 1.068
451.30 1.068
451.40 1.068
451.50 1.068
451.60 1.068
451.70 1.067
451.80 1.067
451.90 1.067
452.00 1.067
452.10 1.067
452.20 1.067
452.30 1.067
452.40 1.067
452.50 1.067
452.60 1.066
452.70 1.066
452.80 1.066
452.90 1.066
453.00 1.066
453.10 1.066
453.20 1.066
453.30 1.066
453.40 1.066
453.50 1.065
453.60 1.065
453.70 1.065
453.80 1.065
453.90 1.065
454.00 1.065
454.10 1.065
454.20 1.065
454.30 1.065
454.40 1.064
454.50 1.064
454.60 1.064
454.70 1.064
454.80 1.064
454.90 1.064
455.00 1.064
455.10 1.064
455.20 1.064
455.30 1.063
455.40 1.063
455.50 1.063
455.60 1.063
455.70 1.063
455.80 1.063
455.90 1.063
456.00 1.063
456.10 1.063
456.20 1.062
456.30 1.062
456.40 1.062
456.50 1.062
456.60 1.062
456.70 1.062
456.80 1.062
456.90 1.062
457.00 1.062
457.10 1.061
457.20 1.061
457.30 1.061
457.40 1.061
457.50 1.061
457.60 1.061
457.70 1.061
457.80 1.061
457.90 1.06
458.00 1.06
458.10 1.06
458.20 1.06
458.30 1.06
458.40 1.06
458.50 1.06
458.60 1.06
458.70 1.06
458.80 1.059
458.90 1.059
459.00 1.059
459.10 1.059
459.20 1.059
459.30 1.059
459.40 1.059
459.50 1.059
459.60 1.058
459.70 1.058
459.80 1.058
459.90 1.058
460.00 1.058
460.10 1.058
460.20 1.058
460.30 1.058
460.40 1.057
460.50 1.057
460.60 1.057
460.70 1.057
460.80 1.057
460.90 1.057
461.00 1.057
461.10 1.057
461.20 1.056
461.30 1.056
461.40 1.056
461.50 1.056
461.60 1.056
461.70 1.056
461.80 1.056
461.90 1.056
462.00 1.055
462.10 1.055
462.20 1.055
462.30 1.055
462.40 1.055
462.50 1.055
462.60 1.055
462.70 1.055
462.80 1.054
462.90 1.054
463.00 1.054
463.10 1.054
463.20 1.054
463.30 1.054
463.40 1.054
463.50 1.054
463.60 1.053
463.70 1.053
463.80 1.053
463.90 1.053
464.00 1.053
464.10 1.053
464.20 1.053
464.30 1.053
464.40 1.052
464.50 1.052
464.60 1.052
464.70 1.052
464.80 1.052
464.90 1.052
465.00 1.052
465.10 1.052
465.20 1.051
465.30 1.051
465.40 1.051
465.50 1.051
465.60 1.051
465.70 1.051
465.80 1.051
465.90 1.051
466.00 1.05
466.10 1.05
466.20 1.05
466.30 1.05
466.40 1.05
466.50 1.05
466.60 1.05
466.70 1.049
466.80 1.049
466.90 1.049
467.00 1.049
467.10 1.049
467.20 1.049
467.30 1.049
467.40 1.049
467.50 1.048
467.60 1.048
467.70 1.048
467.80 1.048
467.90 1.048
468.00 1.048
468.10 1.048
468.20 1.047
468.30 1.047
468.40 1.047
468.50 1.047
468.60 1.047
468.70 1.047
468.80 1.047
468.90 1.047
469.00 1.046
469.10 1.046
469.20 1.046
469.30 1.046
469.40 1.046
469.50 1.046
469.60 1.046
469.70 1.045
469.80 1.045
469.90 1.045
470.00 1.045
470.10 1.045
470.20 1.045
470.30 1.045
470.40 1.044
470.50 1.044
470.60 1.044
470.70 1.044
470.80 1.044
470.90 1.044
471.00 1.044
471.10 1.044
471.20 1.043
471.30 1.043
471.40 1.043
471.50 1.043
471.60 1.043
471.70 1.043
471.80 1.043
471.90 1.042
472.00 1.042
472.10 1.042
472.20 1.042
472.30 1.042
472.40 1.042
472.50 1.042
472.60 1.041
472.70 1.041
472.80 1.041
472.90 1.041
473.00 1.041
473.10 1.041
473.20 1.041
473.30 1.04
473.40 1.04
473.50 1.04
473.60 1.04
473.70 1.04
473.80 1.04
473.90 1.04
474.00 1.039
474.10 1.039
474.20 1.039
474.30 1.039
474.40 1.039
474.50 1.039
474.60 1.038
474.70 1.038
474.80 1.038
474.90 1.038
475.00 1.038
475.10 1.038
475.20 1.038
475.30 1.037
475.40 1.037
475.50 1.037
475.60 1.037
475.70 1.037
475.80 1.037
475.90 1.037
476.00 1.036
476.10 1.036
476.20 1.036
476.30 1.036
476.40 1.036
476.50 1.036
476.60 1.035
476.70 1.035
476.80 1.035
476.90 1.035
477.00 1.035
477.10 1.035
477.20 1.035
477.30 1.034
477.40 1.034
477.50 1.034
477.60 1.034
477.70 1.034
477.80 1.034
477.90 1.033
478.00 1.033
478.10 1.033
478.20 1.033
478.30 1.033
478.40 1.033
478.50 1.032
478.60 1.032
478.70 1.032
478.80 1.032
478.90 1.032
479.00 1.032
479.10 1.031
479.20 1.031
479.30 1.031
479.40 1.031
479.50 1.031
479.60 1.03
479.70 1.03
479.80 1.03
479.90 1.03
480.00 1.03
480.10 1.029
480.20 1.029
480.30 1.029
480.40 1.029
480.50 1.029
480.60 1.028
480.70 1.028
480.80 1.028
480.90 1.028
481.00 1.028
481.10 1.027
481.20 1.027
481.30 1.027
481.40 1.026
481.50 1.026
481.60 1.026
481.70 1.026
481.80 1.025
481.90 1.025
482.00 1.025
482.10 1.025
482.20 1.024
482.30 1.024
482.40 1.023
482.50 1.023
482.60 1.022
482.70 1.022
482.80 1.022
482.90 1.021
483.00 1.021
483.10 1.02
483.20 1.02
483.30 1.019
483.40 1.018
483.50 1.017
483.60 1.016
483.70 1.015
483.80 1.014
483.90 1.013
484.00 1.012
484.10 1.011
484.20 1.009
484.30 1.007
484.40 1.005
484.50 1.003
484.60 1.001
484.70 0.9969
484.80 0.992
484.90 0.9872
485.00 0.9823
485.10 0.9775
485.20 0.9694
485.30 0.9599
485.40 0.9462
485.50 0.9305
485.60 0.9065
485.70 0.8785
485.80 0.8303
485.90 0.7728
486.00 0.6819
486.10 0.4871
486.20 0.575
486.30 0.721
486.40 0.7911
486.50 0.8495
486.60 0.8872
486.70 0.9151
486.80 0.9345
486.90 0.9499
487.00 0.9611
487.10 0.9704
487.20 0.9765
487.30 0.981
487.40 0.9855
487.50 0.9901
487.60 0.9946
487.70 0.9973
487.80 0.9991
487.90 1.001
488.00 1.003
488.10 1.005
488.20 1.006
488.30 1.006
488.40 1.007
488.50 1.007
488.60 1.008
488.70 1.009
488.80 1.009
488.90 1.01
489.00 1.011
489.10 1.011
489.20 1.011
489.30 1.012
489.40 1.012
489.50 1.012
489.60 1.012
489.70 1.012
489.80 1.012
489.90 1.012
490.00 1.012
490.10 1.012
490.20 1.013
490.30 1.012
490.40 1.012
490.50 1.012
490.60 1.012
490.70 1.012
490.80 1.012
490.90 1.012
491.00 1.012
491.10 1.012
491.20 1.012
491.30 1.012
491.40 1.012
491.50 1.012
491.60 1.012
491.70 1.012
491.80 1.012
491.90 1.012
492.00 1.011
492.10 1.011
492.20 1.011
492.30 1.011
492.40 1.011
492.50 1.011
492.60 1.011
492.70 1.011
492.80 1.011
492.90 1.01
493.00 1.01
493.10 1.01
493.20 1.01
493.30 1.01
493.40 1.01
493.50 1.01
493.60 1.01
493.70 1.009
493.80 1.009
493.90 1.009
494.00 1.009
494.10 1.009
494.20 1.009
494.30 1.009
494.40 1.008
494.50 1.008
494.60 1.008
494.70 1.008
494.80 1.008
494.90 1.008
495.00 1.008
495.10 1.008
495.20 1.007
495.30 1.007
495.40 1.007
495.50 1.007
495.60 1.007
495.70 1.007
495.80 1.006
495.90 1.006
496.00 1.006
496.10 1.006
496.20 1.006
496.30 1.006
496.40 1.006
496.50 1.005
496.60 1.005
496.70 1.005
496.80 1.005
496.90 1.005
497.00 1.005
497.10 1.005
497.20 1.004
497.30 1.004
497.40 1.004
497.50 1.004
497.60 1.004
497.70 1.004
497.80 1.003
497.90 1.003
498.00 1.003
498.10 1.003
498.20 1.003
498.30 1.003
498.40 1.003
498.50 1.002
498.60 1.002
498.70 1.002
498.80 1.002
498.90 1.002
499.00 1.002
499.10 1.001
499.20 1.001
499.30 1.001
499.40 1.001
499.50 1.001
499.60 1.001
499.70 1
499.80 1
499.90 1
500.00 1
500.10 0.9998
500.20 0.9997
500.30 0.9995
500.40 0.9994
500.50 0.9992
500.60 0.999
500.70 0.9989
500.80 0.9987
500.90 0.9986
501.00 0.9984
501.10 0.9982
501.20 0.9981
501.30 0.9979
501.40 0.9978
501.50 0.9976
501.60 0.9974
501.70 0.9973
501.80 0.9971
501.90 0.997
502.00 0.9968
502.10 0.9966
502.20 0.9965
502.30 0.9963
502.40 0.9962
502.50 0.996
502.60 0.9958
502.70 0.9957
502.80 0.9955
502.90 0.9953
503.00 0.9952
503.10 0.995
503.20 0.9949
503.30 0.9947
503.40 0.9945
503.50 0.9944
503.60 0.9942
503.70 0.994
503.80 0.9939
503.90 0.9937
504.00 0.9936
504.10 0.9934
504.20 0.9932
504.30 0.9931
504.40 0.9929
504.50 0.9927
504.60 0.9926
504.70 0.9924
504.80 0.9922
504.90 0.9921
505.00 0.9919
505.10 0.9917
505.20 0.9916
505.30 0.9914
505.40 0.9912
505.50 0.9911
505.60 0.9909
505.70 0.9907
505.80 0.9906
505.90 0.9904
506.00 0.9902
506.10 0.9901
506.20 0.9899
506.30 0.9897
506.40 0.9896
506.50 0.9894
506.60 0.9892
506.70 0.9891
506.80 0.9889
506.90 0.9887
507.00 0.9886
507.10 0.9884
507.20 0.9882
507.30 0.9881
507.40 0.9879
507.50 0.9877
507.60 0.9876
507.70 0.9874
507.80 0.9872
507.90 0.9871
508.00 0.9869
508.10 0.9867
508.20 0.9866
508.30 0.9864
508.40 0.9862
508.50 0.9861
508.60 0.9859
508.70 0.9857
508.80 0.9856
508.90 0.9854
509.00 0.9852
509.10 0.9851
509.20 0.9849
509.30 0.9847
509.40 0.9846
509.50 0.9844
509.60 0.9842
509.70 0.984
509.80 0.9839
509.90 0.9837
510.00 0.9835
510.10 0.9834
510.20 0.9832
510.30 0.983
510.40 0.9829
510.50 0.9827
510.60 0.9825
510.70 0.9824
510.80 0.9822
510.90 0.982
511.00 0.9818
511.10 0.9817
511.20 0.9815
511.30 0.9813
511.40 0.9812
511.50 0.981
511.60 0.9808
511.70 0.9807
511.80 0.9805
511.90 0.9803
512.00 0.9801
512.10 0.98
512.20 0.9798
512.30 0.9796
512.40 0.9795
512.50 0.9793
512.60 0.9791
512.70 0.9789
512.80 0.9788
512.90 0.9786
513.00 0.9784
513.10 0.9783
513.20 0.9781
513.30 0.9779
513.40 0.9777
513.50 0.9776
513.60 0.9774
513.70 0.9772
513.80 0.9771
513.90 0.9769
514.00 0.9767
514.10 0.9765
514.20 0.9764
514.30 0.9762
514.40 0.976
514.50 0.9758
514.60 0.9757
514.70 0.9755
514.80 0.9753
514.90 0.9752
515.00 0.975
515.10 0.9748
515.20 0.9746
515.30 0.9745
515.40 0.9743
515.50 0.9741
515.60 0.974
515.70 0.9738
515.80 0.9736
515.90 0.9734
516.00 0.9733
516.10 0.9731
516.20 0.9729
516.30 0.9727
516.40 0.9726
516.50 0.9724
516.60 0.9722
516.70 0.972
516.80 0.9719
516.90 0.9717
517.00 0.9715
517.10 0.9713
517.20 0.9712
517.30 0.971
517.40 0.9708
517.50 0.9707
517.60 0.9705
517.70 0.9703
517.80 0.9701
517.90 0.97
518.00 0.9698
518.10 0.9696
518.20 0.9694
518.30 0.9693
518.40 0.9691
518.50 0.9689
518.60 0.9687
518.70 0.9686
518.80 0.9684
518.90 0.9682
519.00 0.968
519.10 0.9679
519.20 0.9677
519.30 0.9675
519.40 0.9673
519.50 0.9672
519.60 0.967
519.70 0.9668
519.80 0.9666
519.90 0.9665
520.00 0.9663
520.10 0.9661
520.20 0.9659
520.30 0.9658
520.40 0.9656
520.50 0.9654
520.60 0.9652
520.70 0.9651
520.80 0.9649
520.90 0.9647
521.00 0.9645
521.10 0.9644
521.20 0.9642
521.30 0.964
521.40 0.9638
521.50 0.9636
521.60 0.9635
521.70 0.9633
521.80 0.9631
521.90 0.9629
522.00 0.9628
522.10 0.9626
522.20 0.9624
522.30 0.9622
522.40 0.9621
522.50 0.9619
522.60 0.9617
522.70 0.9615
522.80 0.9614
522.90 0.9612
523.00 0.961
523.10 0.9608
523.20 0.9607
523.30 0.9605
523.40 0.9603
523.50 0.9601
523.60 0.9599
523.70 0.9598
523.80 0.9596
523.90 0.9594
524.00 0.9592
524.10 0.9591
524.20 0.9589
524.30 0.9587
524.40 0.9585
524.50 0.9583
524.60 0.9582
524.70 0.958
524.80 0.9578
524.90 0.9576
525.00 0.9575
525.10 0.9573
525.20 0.9571
525.30 0.9569
525.40 0.9567
525.50 0.9566
525.60 0.9564
525.70 0.9562
525.80 0.956
525.90 0.9559
526.00 0.9557
526.10 0.9555
526.20 0.9553
526.30 0.9551
526.40 0.955
526.50 0.9548
526.60 0.9546
526.70 0.9544
526.80 0.9543
526.90 0.9541
527.00 0.9539
527.10 0.9537
527.20 0.9535
527.30 0.9534
527.40 0.9532
527.50 0.953
527.60 0.9528
527.70 0.9526
527.80 0.9525
527.90 0.9523
528.00 0.9521
528.10 0.9519
528.20 0.9518
528.30 0.9516
528.40 0.9514
528.50 0.9512
528.60 0.951
528.70 0.9509
528.80 0.9507
528.90 0.9505
529.00 0.9503
529.10 0.9501
529.20 0.95
529.30 0.9498
529.40 0.9496
529.50 0.9494
529.60 0.9492
529.70 0.9491
529.80 0.9489
529.90 0.9487
530.00 0.9485
530.10 0.9484
530.20 0.9482
530.30 0.948
530.40 0.9478
530.50 0.9476
530.60 0.9475
530.70 0.9473
530.80 0.9471
530.90 0.9469
531.00 0.9467
531.10 0.9465
531.20 0.9464
531.30 0.9462
531.40 0.946
531.50 0.9458
531.60 0.9457
531.70 0.9455
531.80 0.9453
531.90 0.9451
532.00 0.9449
532.10 0.9448
532.20 0.9446
532.30 0.9444
532.40 0.9442
532.50 0.944
532.60 0.9438
532.70 0.9437
532.80 0.9435
532.90 0.9433
533.00 0.9431
533.10 0.9429
533.20 0.9428
533.30 0.9426
533.40 0.9424
533.50 0.9422
533.60 0.942
533.70 0.9419
533.80 0.9417
533.90 0.9415
534.00 0.9413
534.10 0.9411
534.20 0.941
534.30 0.9408
534.40 0.9406
534.50 0.9404
534.60 0.9402
534.70 0.9401
534.80 0.9399
534.90 0.9397
535.00 0.9395
535.10 0.9393
535.20 0.9391
535.30 0.939
535.40 0.9388
535.50 0.9386
535.60 0.9384
535.70 0.9382
535.80 0.9381
535.90 0.9379
536.00 0.9377
536.10 0.9375
536.20 0.9373
536.30 0.9371
536.40 0.937
536.50 0.9368
536.60 0.9366
536.70 0.9364
536.80 0.9362
536.90 0.9361
537.00 0.9359
537.10 0.9357
537.20 0.9355
537.30 0.9353
537.40 0.9351
537.50 0.935
537.60 0.9348
537.70 0.9346
537.80 0.9344
537.90 0.9342
538.00 0.934
538.10 0.9339
538.20 0.9337
538.30 0.9335
538.40 0.9333
538.50 0.9331
538.60 0.933
538.70 0.9328
538.80 0.9326
538.90 0.9324
539.00 0.9322
539.10 0.932
539.20 0.9319
539.30 0.9317
539.40 0.9315
539.50 0.9313
539.60 0.9311
539.70 0.9309
539.80 0.9308
539.90 0.9306
540.00 0.9304
540.10 0.9302
540.20 0.93
540.30 0.9298
540.40 0.9297
540.50 0.9295
540.60 0.9293
540.70 0.9291
540.80 0.9289
540.90 0.9287
541.00 0.9286
541.10 0.9284
541.20 0.9282
541.30 0.928
541.40 0.9278
541.50 0.9276
541.60 0.9274
541.70 0.9273
541.80 0.9271
541.90 0.9269
542.00 0.9267
542.10 0.9265
542.20 0.9263
542.30 0.9262
542.40 0.926
542.50 0.9258
542.60 0.9256
542.70 0.9254
542.80 0.9252
542.90 0.925
543.00 0.9249
543.10 0.9247
543.20 0.9245
543.30 0.9243
543.40 0.9241
543.50 0.9239
543.60 0.9238
543.70 0.9236
543.80 0.9234
543.90 0.9232
544.00 0.923
544.10 0.9228
544.20 0.9227
544.30 0.9225
544.40 0.9223
544.50 0.9221
544.60 0.9219
544.70 0.9217
544.80 0.9216
544.90 0.9214
545.00 0.9212
545.10 0.921
545.20 0.9208
545.30 0.9207
545.40 0.9205
545.50 0.9203
545.60 0.9201
545.70 0.9199
545.80 0.9197
545.90 0.9196
546.00 0.9194
546.10 0.9192
546.20 0.919
546.30 0.9188
546.40 0.9187
546.50 0.9185
546.60 0.9183
546.70 0.9181
546.80 0.9179
546.90 0.9177
547.00 0.9176
547.10 0.9174
547.20 0.9172
547.30 0.917
547.40 0.9168
547.50 0.9166
547.60 0.9164
547.70 0.9162
547.80 0.9161
547.90 0.9159
548.00 0.9157
548.10 0.9155
548.20 0.9153
548.30 0.9151
548.40 0.9149
548.50 0.9148
548.60 0.9146
548.70 0.9144
548.80 0.9142
548.90 0.914
549.00 0.9139
549.10 0.9137
549.20 0.9135
549.30 0.9133
549.40 0.9131
549.50 0.9129
549.60 0.9127
549.70 0.9126
549.80 0.9124
549.90 0.9122
550.00 0.912
550.10 0.9118
550.20 0.9116
550.30 0.9114
550.40 0.9112
550.50 0.9111
550.60 0.9109
550.70 0.9107
550.80 0.9105
550.90 0.9103
551.00 0.9101
551.10 0.9099
551.20 0.9097
551.30 0.9096
551.40 0.9094
551.50 0.9092
551.60 0.909
551.70 0.9088
551.80 0.9086
551.90 0.9084
552.00 0.9083
552.10 0.9081
552.20 0.9079
552.30 0.9077
552.40 0.9075
552.50 0.9073
552.60 0.9071
552.70 0.907
552.80 0.9068
552.90 0.9066
553.00 0.9064
553.10 0.9062
553.20 0.906
553.30 0.9058
553.40 0.9057
553.50 0.9055
553.60 0.9053
553.70 0.9051
553.80 0.9049
553.90 0.9047
554.00 0.9045
554.10 0.9044
554.20 0.9042
554.30 0.904
554.40 0.9038
554.50 0.9036
554.60 0.9034
554.70 0.9033
554.80 0.9031
554.90 0.9029
555.00 0.9027
555.10 0.9025
555.20 0.9023
555.30 0.9021
555.40 0.902
555.50 0.9018
555.60 0.9016
555.70 0.9014
555.80 0.9012
555.90 0.901
556.00 0.9009
556.10 0.9007
556.20 0.9005
556.30 0.9003
556.40 0.9001
556.50 0.8999
556.60 0.8998
556.70 0.8996
556.80 0.8994
556.90 0.8992
557.00 0.899
557.10 0.8988
557.20 0.8987
557.30 0.8985
557.40 0.8983
557.50 0.8981
557.60 0.8979
557.70 0.8977
557.80 0.8975
557.90 0.8973
558.00 0.8971
558.10 0.8969
558.20 0.8968
558.30 0.8966
558.40 0.8964
558.50 0.8962
558.60 0.896
558.70 0.8958
558.80 0.8957
558.90 0.8955
559.00 0.8953
559.10 0.8951
559.20 0.8949
559.30 0.8947
559.40 0.8946
559.50 0.8944
559.60 0.8942
559.70 0.894
559.80 0.8938
559.90 0.8936
560.00 0.8934
560.10 0.8932
560.20 0.893
560.30 0.8929
560.40 0.8927
560.50 0.8925
560.60 0.8923
560.70 0.8921
560.80 0.8919
560.90 0.8917
561.00 0.8915
561.10 0.8913
561.20 0.8912
561.30 0.891
561.40 0.8908
561.50 0.8906
561.60 0.8904
561.70 0.8902
561.80 0.89
561.90 0.8898
562.00 0.8897
562.10 0.8895
562.20 0.8893
562.30 0.8891
562.40 0.8889
562.50 0.8887
562.60 0.8885
562.70 0.8883
562.80 0.8882
562.90 0.888
563.00 0.8878
563.10 0.8876
563.20 0.8874
563.30 0.8872
563.40 0.887
563.50 0.8869
563.60 0.8867
563.70 0.8865
563.80 0.8863
563.90 0.8861
564.00 0.8859
564.10 0.8857
564.20 0.8856
564.30 0.8854
564.40 0.8852
564.50 0.885
564.60 0.8848
564.70 0.8846
564.80 0.8844
564.90 0.8843
565.00 0.8841
565.10 0.8839
565.20 0.8837
565.30 0.8835
565.40 0.8833
565.50 0.8831
565.60 0.883
565.70 0.8828
565.80 0.8826
565.90 0.8824
566.00 0.8822
566.10 0.882
566.20 0.8818
566.30 0.8817
566.40 0.8815
566.50 0.8813
566.60 0.8811
566.70 0.8809
566.80 0.8807
566.90 0.8805
567.00 0.8803
567.10 0.8801
567.20 0.8799
567.30 0.8797
567.40 0.8796
567.50 0.8794
567.60 0.8792
567.70 0.879
567.80 0.8788
567.90 0.8786
568.00 0.8785
568.10 0.8783
568.20 0.8781
568.30 0.8779
568.40 0.8777
568.50 0.8775
568.60 0.8773
568.70 0.8771
568.80 0.8769
568.90 0.8768
569.00 0.8766
569.10 0.8764
569.20 0.8762
569.30 0.876
569.40 0.8758
569.50 0.8756
569.60 0.8755
569.70 0.8753
569.80 0.8751
569.90 0.8749
570.00 0.8747
570.10 0.8746
570.20 0.8744
570.30 0.8742
570.40 0.874
570.50 0.8738
570.60 0.8736
570.70 0.8734
570.80 0.8732
570.90 0.873
571.00 0.8728
571.10 0.8727
571.20 0.8725
571.30 0.8723
571.40 0.8721
571.50 0.8719
571.60 0.8717
571.70 0.8715
571.80 0.8713
571.90 0.8712
572.00 0.871
572.10 0.8708
572.20 0.8706
572.30 0.8704
572.40 0.8702
572.50 0.87
572.60 0.8698
572.70 0.8696
572.80 0.8695
572.90 0.8693
573.00 0.8691
573.10 0.8689
573.20 0.8687
573.30 0.8685
573.40 0.8683
573.50 0.8681
573.60 0.868
573.70 0.8678
573.80 0.8676
573.90 0.8674
574.00 0.8672
574.10 0.867
574.20 0.8668
574.30 0.8667
574.40 0.8665
574.50 0.8663
574.60 0.8661
574.70 0.8659
574.80 0.8657
574.90 0.8655
575.00 0.8654
575.10 0.8652
575.20 0.865
575.30 0.8648
575.40 0.8646
575.50 0.8644
575.60 0.8642
575.70 0.864
575.80 0.8638
575.90 0.8636
576.00 0.8634
576.10 0.8632
576.20 0.863
576.30 0.8629
576.40 0.8627
576.50 0.8625
576.60 0.8623
576.70 0.8621
576.80 0.8619
576.90 0.8618
577.00 0.8616
577.10 0.8614
577.20 0.8612
577.30 0.861
577.40 0.8608
577.50 0.8606
577.60 0.8605
577.70 0.8603
577.80 0.8601
577.90 0.8599
578.00 0.8597
578.10 0.8595
578.20 0.8594
578.30 0.8592
578.40 0.859
578.50 0.8588
578.60 0.8586
578.70 0.8584
578.80 0.8582
578.90 0.858
579.00 0.8578
579.10 0.8576
579.20 0.8574
579.30 0.8573
579.40 0.8571
579.50 0.8569
579.60 0.8567
579.70 0.8565
579.80 0.8563
579.90 0.8561
580.00 0.8559
580.10 0.8557
580.20 0.8555
580.30 0.8554
580.40 0.8552
580.50 0.855
580.60 0.8548
580.70 0.8546
580.80 0.8545
580.90 0.8543
581.00 0.8541
581.10 0.8539
581.20 0.8537
581.30 0.8535
581.40 0.8533
581.50 0.8532
581.60 0.853
581.70 0.8528
581.80 0.8526
581.90 0.8524
582.00 0.8522
582.10 0.852
582.20 0.8518
582.30 0.8517
582.40 0.8515
582.50 0.8513
582.60 0.8511
582.70 0.8509
582.80 0.8507
582.90 0.8505
583.00 0.8503
583.10 0.8501
583.20 0.85
583.30 0.8498
583.40 0.8496
583.50 0.8494
583.60 0.8492
583.70 0.849
583.80 0.8488
583.90 0.8486
584.00 0.8485
584.10 0.8483
584.20 0.8481
584.30 0.8479
584.40 0.8477
584.50 0.8475
584.60 0.8473
584.70 0.8472
584.80 0.847
584.90 0.8468
585.00 0.8466
585.10 0.8464
585.20 0.8462
585.30 0.846
585.40 0.8459
585.50 0.8457
585.60 0.8455
585.70 0.8453
585.80 0.8451
585.90 0.8449
586.00 0.8447
586.10 0.8446
586.20 0.8444
586.30 0.8442
586.40 0.844
586.50 0.8438
586.60 0.8436
586.70 0.8434
586.80 0.8432
586.90 0.843
587.00 0.8428
587.10 0.8426
587.20 0.8424
587.30 0.8423
587.40 0.8421
587.50 0.8419
587.60 0.8417
587.70 0.8415
587.80 0.8413
587.90 0.8411
588.00 0.841
588.10 0.8408
588.20 0.8406
588.30 0.8404
588.40 0.8402
588.50 0.84
588.60 0.8398
588.70 0.8396
588.80 0.8394
588.90 0.8393
589.00 0.8391
589.10 0.8389
589.20 0.8387
589.30 0.8385
589.40 0.8383
589.50 0.8381
589.60 0.838
589.70 0.8378
589.80 0.8376
589.90 0.8374
590.00 0.8372
590.10 0.837
590.20 0.8369
590.30 0.8367
590.40 0.8365
590.50 0.8363
590.60 0.8361
590.70 0.8359
590.80 0.8357
590.90 0.8355
591.00 0.8353
591.10 0.8352
591.20 0.835
591.30 0.8348
591.40 0.8346
591.50 0.8344
591.60 0.8342
591.70 0.834
591.80 0.8338
591.90 0.8336
592.00 0.8335
592.10 0.8333
592.20 0.8331
592.30 0.8329
592.40 0.8327
592.50 0.8325
592.60 0.8324
592.70 0.8322
592.80 0.832
592.90 0.8318
593.00 0.8316
593.10 0.8315
593.20 0.8313
593.30 0.8311
593.40 0.8309
593.50 0.8307
593.60 0.8305
593.70 0.8303
593.80 0.8301
593.90 0.83
594.00 0.8298
594.10 0.8296
594.20 0.8294
594.30 0.8292
594.40 0.829
594.50 0.8288
594.60 0.8287
594.70 0.8285
594.80 0.8283
594.90 0.8281
595.00 0.8279
595.10 0.8277
595.20 0.8275
595.30 0.8273
595.40 0.8271
595.50 0.827
595.60 0.8268
595.70 0.8266
595.80 0.8264
595.90 0.8262
596.00 0.826
596.10 0.8258
596.20 0.8256
596.30 0.8254
596.40 0.8252
596.50 0.825
596.60 0.8249
596.70 0.8247
596.80 0.8245
596.90 0.8243
597.00 0.8241
597.10 0.8239
597.20 0.8238
597.30 0.8236
597.40 0.8234
597.50 0.8232
597.60 0.823
597.70 0.8228
597.80 0.8227
597.90 0.8225
598.00 0.8223
598.10 0.8221
598.20 0.8219
598.30 0.8217
598.40 0.8215
598.50 0.8214
598.60 0.8212
598.70 0.821
598.80 0.8208
598.90 0.8206
599.00 0.8204
599.10 0.8203
599.20 0.8201
599.30 0.8199
599.40 0.8197
599.50 0.8195
599.60 0.8193
599.70 0.8191
599.80 0.8189
599.90 0.8187
600.00 0.8186
600.10 0.8184
600.20 0.8182
600.30 0.818
600.40 0.8178
600.50 0.8176
600.60 0.8175
600.70 0.8173
600.80 0.8171
600.90 0.8169
601.00 0.8167
601.10 0.8165
601.20 0.8164
601.30 0.8162
601.40 0.816
601.50 0.8158
601.60 0.8156
601.70 0.8154
601.80 0.8152
601.90 0.815
602.00 0.8149
602.10 0.8147
602.20 0.8145
602.30 0.8143
602.40 0.8141
602.50 0.8139
602.60 0.8137
602.70 0.8135
602.80 0.8133
602.90 0.8132
603.00 0.813
603.10 0.8128
603.20 0.8126
603.30 0.8124
603.40 0.8122
603.50 0.812
603.60 0.8119
603.70 0.8117
603.80 0.8115
603.90 0.8113
604.00 0.8111
604.10 0.8109
604.20 0.8107
604.30 0.8105
604.40 0.8104
604.50 0.8102
604.60 0.81
604.70 0.8098
604.80 0.8096
604.90 0.8094
605.00 0.8092
605.10 0.8091
605.20 0.8089
605.30 0.8087
605.40 0.8085
605.50 0.8083
605.60 0.8081
605.70 0.8079
605.80 0.8078
605.90 0.8076
606.00 0.8074
606.10 0.8072
606.20 0.807
606.30 0.8068
606.40 0.8066
606.50 0.8065
606.60 0.8063
606.70 0.8061
606.80 0.8059
606.90 0.8057
607.00 0.8055
607.10 0.8054
607.20 0.8052
607.30 0.805
607.40 0.8048
607.50 0.8046
607.60 0.8044
607.70 0.8043
607.80 0.8041
607.90 0.8039
608.00 0.8037
608.10 0.8035
608.20 0.8033
608.30 0.8032
608.40 0.803
608.50 0.8028
608.60 0.8026
608.70 0.8024
608.80 0.8022
608.90 0.8021
609.00 0.8019
609.10 0.8017
609.20 0.8015
609.30 0.8013
609.40 0.8011
609.50 0.801
609.60 0.8008
609.70 0.8006
609.80 0.8004
609.90 0.8002
610.00 0.8
610.10 0.7999
610.20 0.7997
610.30 0.7995
610.40 0.7993
610.50 0.7991
610.60 0.7989
610.70 0.7987
610.80 0.7985
610.90 0.7984
611.00 0.7982
611.10 0.798
611.20 0.7978
611.30 0.7976
611.40 0.7974
611.50 0.7973
611.60 0.7971
611.70 0.7969
611.80 0.7967
611.90 0.7965
612.00 0.7964
612.10 0.7962
612.20 0.796
612.30 0.7958
612.40 0.7956
612.50 0.7954
612.60 0.7952
612.70 0.795
612.80 0.7949
612.90 0.7947
613.00 0.7945
613.10 0.7943
613.20 0.7941
613.30 0.7939
613.40 0.7937
613.50 0.7936
613.60 0.7934
613.70 0.7932
613.80 0.793
613.90 0.7928
614.00 0.7926
614.10 0.7924
614.20 0.7923
614.30 0.7921
614.40 0.7919
614.50 0.7917
614.60 0.7915
614.70 0.7913
614.80 0.7911
614.90 0.791
615.00 0.7908
615.10 0.7906
615.20 0.7904
615.30 0.7902
615.40 0.79
615.50 0.7899
615.60 0.7897
615.70 0.7895
615.80 0.7893
615.90 0.7892
616.00 0.789
616.10 0.7888
616.20 0.7886
616.30 0.7884
616.40 0.7883
616.50 0.7881
616.60 0.7879
616.70 0.7877
616.80 0.7875
616.90 0.7873
617.00 0.7871
617.10 0.787
617.20 0.7868
617.30 0.7866
617.40 0.7864
617.50 0.7862
617.60 0.786
617.70 0.7859
617.80 0.7857
617.90 0.7855
618.00 0.7853
618.10 0.7851
618.20 0.7849
618.30 0.7848
618.40 0.7846
618.50 0.7844
618.60 0.7842
618.70 0.784
618.80 0.7839
618.90 0.7837
619.00 0.7835
619.10 0.7833
619.20 0.7831
619.30 0.7829
619.40 0.7827
619.50 0.7826
619.60 0.7824
619.70 0.7822
619.80 0.782
619.90 0.7818
620.00 0.7816
620.10 0.7814
620.20 0.7812
620.30 0.7811
620.40 0.7809
620.50 0.7807
620.60 0.7805
620.70 0.7803
620.80 0.7802
620.90 0.78
621.00 0.7798
621.10 0.7796
621.20 0.7794
621.30 0.7792
621.40 0.779
621.50 0.7789
621.60 0.7787
621.70 0.7785
621.80 0.7783
621.90 0.7781
622.00 0.7779
622.10 0.7777
622.20 0.7776
622.30 0.7774
622.40 0.7772
622.50 0.777
622.60 0.7768
622.70 0.7767
622.80 0.7765
622.90 0.7763
623.00 0.7761
623.10 0.7759
623.20 0.7758
623.30 0.7756
623.40 0.7754
623.50 0.7752
623.60 0.775
623.70 0.7748
623.80 0.7746
623.90 0.7745
624.00 0.7743
624.10 0.7741
624.20 0.7739
624.30 0.7737
624.40 0.7735
624.50 0.7733
624.60 0.7732
624.70 0.773
624.80 0.7728
624.90 0.7726
625.00 0.7724
625.10 0.7722
625.20 0.7721
625.30 0.7719
625.40 0.7717
625.50 0.7715
625.60 0.7713
625.70 0.7711
625.80 0.7709
625.90 0.7708
626.00 0.7706
626.10 0.7704
626.20 0.7702
626.30 0.77
626.40 0.7698
626.50 0.7696
626.60 0.7694
626.70 0.7693
626.80 0.7691
626.90 0.7689
627.00 0.7687
627.10 0.7685
627.20 0.7683
627.30 0.7681
627.40 0.7679
627.50 0.7678
627.60 0.7676
627.70 0.7674
627.80 0.7672
627.90 0.767
628.00 0.7669
628.10 0.7667
628.20 0.7665
628.30 0.7663
628.40 0.7661
628.50 0.7659
628.60 0.7658
628.70 0.7656
628.80 0.7654
628.90 0.7652
629.00 0.765
629.10 0.7649
629.20 0.7647
629.30 0.7645
629.40 0.7643
629.50 0.7641
629.60 0.7639
629.70 0.7637
629.80 0.7635
629.90 0.7634
630.00 0.7632
630.10 0.763
630.20 0.7628
630.30 0.7626
630.40 0.7624
630.50 0.7623
630.60 0.7621
630.70 0.7619
630.80 0.7617
630.90 0.7615
631.00 0.7614
631.10 0.7612
631.20 0.761
631.30 0.7608
631.40 0.7606
631.50 0.7604
631.60 0.7603
631.70 0.7601
631.80 0.7599
631.90 0.7597
632.00 0.7595
632.10 0.7594
632.20 0.7592
632.30 0.759
632.40 0.7588
632.50 0.7586
632.60 0.7584
632.70 0.7583
632.80 0.7581
632.90 0.7579
633.00 0.7577
633.10 0.7575
633.20 0.7573
633.30 0.7571
633.40 0.757
633.50 0.7568
633.60 0.7566
633.70 0.7564
633.80 0.7562
633.90 0.756
634.00 0.7559
634.10 0.7557
634.20 0.7555
634.30 0.7553
634.40 0.7551
634.50 0.7549
634.60 0.7547
634.70 0.7545
634.80 0.7543
634.90 0.7542
635.00 0.754
635.10 0.7538
635.20 0.7536
635.30 0.7534
635.40 0.7532
635.50 0.753
635.60 0.7528
635.70 0.7526
635.80 0.7524
635.90 0.7523
636.00 0.7521
636.10 0.7519
636.20 0.7517
636.30 0.7515
636.40 0.7513
636.50 0.7511
636.60 0.7509
636.70 0.7507
636.80 0.7506
636.90 0.7504
637.00 0.7502
637.10 0.75
637.20 0.7498
637.30 0.7496
637.40 0.7494
637.50 0.7492
637.60 0.749
637.70 0.7489
637.80 0.7487
637.90 0.7485
638.00 0.7483
638.10 0.7481
638.20 0.7479
638.30 0.7477
638.40 0.7475
638.50 0.7474
638.60 0.7472
638.70 0.747
638.80 0.7468
638.90 0.7466
639.00 0.7464
639.10 0.7462
639.20 0.746
639.30 0.7459
639.40 0.7457
639.50 0.7455
639.60 0.7453
639.70 0.7451
639.80 0.7449
639.90 0.7447
640.00 0.7445
640.10 0.7443
640.20 0.7441
640.30 0.7439
640.40 0.7437
640.50 0.7435
640.60 0.7433
640.70 0.7432
640.80 0.743
640.90 0.7428
641.00 0.7426
641.10 0.7424
641.20 0.7422
641.30 0.742
641.40 0.7418
641.50 0.7416
641.60 0.7414
641.70 0.7412
641.80 0.741
641.90 0.7409
642.00 0.7407
642.10 0.7405
642.20 0.7403
642.30 0.7401
642.40 0.7399
642.50 0.7397
642.60 0.7395
642.70 0.7393
642.80 0.7391
642.90 0.7389
643.00 0.7387
643.10 0.7385
643.20 0.7383
643.30 0.7381
643.40 0.7379
643.50 0.7377
643.60 0.7375
643.70 0.7373
643.80 0.7371
643.90 0.7369
644.00 0.7367
644.10 0.7365
644.20 0.7363
644.30 0.7361
644.40 0.7359
644.50 0.7357
644.60 0.7355
644.70 0.7353
644.80 0.735
644.90 0.7348
645.00 0.7346
645.10 0.7344
645.20 0.7342
645.30 0.734
645.40 0.7338
645.50 0.7336
645.60 0.7334
645.70 0.7331
645.80 0.7329
645.90 0.7327
646.00 0.7325
646.10 0.7323
646.20 0.7321
646.30 0.7319
646.40 0.7316
646.50 0.7314
646.60 0.7312
646.70 0.7309
646.80 0.7307
646.90 0.7305
647.00 0.7302
647.10 0.73
647.20 0.7298
647.30 0.7295
647.40 0.7293
647.50 0.729
647.60 0.7288
647.70 0.7285
647.80 0.7283
647.90 0.728
648.00 0.7278
648.10 0.7275
648.20 0.7273
648.30 0.727
648.40 0.7267
648.50 0.7265
648.60 0.7262
648.70 0.7259
648.80 0.7256
648.90 0.7253
649.00 0.725
649.10 0.7248
649.20 0.7245
649.30 0.7242
649.40 0.7239
649.50 0.7235
649.60 0.7232
649.70 0.7229
649.80 0.7225
649.90 0.7222
650.00 0.7219
650.10 0.7215
650.20 0.7212
650.30 0.7209
650.40 0.7204
650.50 0.72
650.60 0.7196
650.70 0.7191
650.80 0.7187
650.90 0.7183
651.00 0.7179
651.10 0.7174
651.20 0.717
651.30 0.7166
651.40 0.716
651.50 0.7153
651.60 0.7147
651.70 0.7141
651.80 0.7135
651.90 0.7129
652.00 0.7123
652.10 0.7117
652.20 0.7111
652.30 0.7104
652.40 0.7095
652.50 0.7085
652.60 0.7075
652.70 0.7065
652.80 0.7055
652.90 0.7045
653.00 0.7035
653.10 0.7025
653.20 0.7015
653.30 0.7003
653.40 0.6983
653.50 0.6963
653.60 0.6944
653.70 0.6924
653.80 0.6904
653.90 0.6884
654.00 0.6864
654.10 0.6845
654.20 0.6825
654.30 0.6801
654.40 0.6763
654.50 0.6724
654.60 0.6686
654.70 0.6647
654.80 0.6603
654.90 0.6534
655.00 0.6465
655.10 0.6397
655.20 0.6328
655.30 0.6251
655.40 0.6141
655.50 0.6022
655.60 0.5867
655.70 0.5697
655.80 0.5465
655.90 0.5201
656.00 0.4807
656.10 0.4382
656.20 0.3741
656.30 0.3412
656.40 0.3994
656.50 0.4558
656.60 0.4952
656.70 0.5312
656.80 0.5543
656.90 0.5757
657.00 0.5909
657.10 0.6052
657.20 0.6159
657.30 0.6258
657.40 0.6324
657.50 0.6389
657.60 0.6455
657.70 0.652
657.80 0.6579
657.90 0.6614
658.00 0.6649
658.10 0.6684
658.20 0.6719
658.30 0.675
658.40 0.6766
658.50 0.6783
658.60 0.6799
658.70 0.6815
658.80 0.6831
658.90 0.6848
659.00 0.6864
659.10 0.688
659.20 0.6896
659.30 0.6911
659.40 0.6917
659.50 0.6923
659.60 0.693
659.70 0.6936
659.80 0.6942
659.90 0.6949
660.00 0.6955
660.10 0.6961
660.20 0.6968
660.30 0.6973
660.40 0.6976
660.50 0.6978
660.60 0.6981
660.70 0.6983
660.80 0.6985
660.90 0.6988
661.00 0.699
661.10 0.6993
661.20 0.6995
661.30 0.6997
661.40 0.6998
661.50 0.6999
661.60 0.6999
661.70 0.7
661.80 0.7001
661.90 0.7002
662.00 0.7002
662.10 0.7003
662.20 0.7004
662.30 0.7004
662.40 0.7004
662.50 0.7004
662.60 0.7004
662.70 0.7004
662.80 0.7003
662.90 0.7003
663.00 0.7003
663.10 0.7003
663.20 0.7003
663.30 0.7002
663.40 0.7002
663.50 0.7001
663.60 0.7
663.70 0.7
663.80 0.6999
663.90 0.6998
664.00 0.6997
664.10 0.6997
664.20 0.6996
664.30 0.6995
664.40 0.6994
664.50 0.6993
664.60 0.6992
664.70 0.6991
664.80 0.699
664.90 0.6989
665.00 0.6988
665.10 0.6987
665.20 0.6986
665.30 0.6985
665.40 0.6984
665.50 0.6983
665.60 0.6982
665.70 0.698
665.80 0.6979
665.90 0.6978
666.00 0.6977
666.10 0.6975
666.20 0.6974
666.30 0.6973
666.40 0.6972
666.50 0.697
666.60 0.6969
666.70 0.6968
666.80 0.6966
666.90 0.6965
667.00 0.6964
667.10 0.6963
667.20 0.6961
667.30 0.696
667.40 0.6959
667.50 0.6957
667.60 0.6956
667.70 0.6954
667.80 0.6953
667.90 0.6951
668.00 0.695
668.10 0.6948
668.20 0.6947
668.30 0.6945
668.40 0.6944
668.50 0.6942
668.60 0.6941
668.70 0.6939
668.80 0.6938
668.90 0.6936
669.00 0.6935
669.10 0.6934
669.20 0.6932
669.30 0.6931
669.40 0.6929
669.50 0.6928
669.60 0.6926
669.70 0.6924
669.80 0.6923
669.90 0.6921
670.00 0.692
670.10 0.6918
670.20 0.6917
670.30 0.6915
670.40 0.6914
670.50 0.6912
670.60 0.6911
670.70 0.6909
670.80 0.6908
670.90 0.6906
671.00 0.6905
671.10 0.6903
671.20 0.6902
671.30 0.69
671.40 0.6899
671.50 0.6897
671.60 0.6895
671.70 0.6894
671.80 0.6892
671.90 0.6891
672.00 0.6889
672.10 0.6888
672.20 0.6886
672.30 0.6884
672.40 0.6883
672.50 0.6881
672.60 0.688
672.70 0.6878
672.80 0.6876
672.90 0.6875
673.00 0.6873
673.10 0.6871
673.20 0.687
673.30 0.6868
673.40 0.6867
673.50 0.6865
673.60 0.6863
673.70 0.6862
673.80 0.686
673.90 0.6859
674.00 0.6857
674.10 0.6855
674.20 0.6854
674.30 0.6852
674.40 0.685
674.50 0.6849
674.60 0.6847
674.70 0.6846
674.80 0.6844
674.90 0.6842
675.00 0.6841
675.10 0.6839
675.20 0.6838
675.30 0.6836
675.40 0.6834
675.50 0.6833
675.60 0.6831
675.70 0.683
675.80 0.6828
675.90 0.6826
676.00 0.6825
676.10 0.6823
676.20 0.6822
676.30 0.682
676.40 0.6818
676.50 0.6817
676.60 0.6815
676.70 0.6814
676.80 0.6812
676.90 0.681
677.00 0.6809
677.10 0.6807
677.20 0.6806
677.30 0.6804
677.40 0.6802
677.50 0.6801
677.60 0.6799
677.70 0.6798
677.80 0.6796
677.90 0.6794
678.00 0.6793
678.10 0.6791
678.20 0.679
678.30 0.6788
678.40 0.6786
678.50 0.6785
678.60 0.6783
678.70 0.6782
678.80 0.678
678.90 0.6779
679.00 0.6777
679.10 0.6775
679.20 0.6774
679.30 0.6772
679.40 0.6771
679.50 0.6769
679.60 0.6767
679.70 0.6766
679.80 0.6764
679.90 0.6762
680.00 0.6761
680.10 0.6759
680.20 0.6757
680.30 0.6756
680.40 0.6754
680.50 0.6753
680.60 0.6751
680.70 0.6749
680.80 0.6748
680.90 0.6746
681.00 0.6744
681.10 0.6743
681.20 0.6741
681.30 0.6739
681.40 0.6738
681.50 0.6736
681.60 0.6734
681.70 0.6733
681.80 0.6731
681.90 0.6729
682.00 0.6728
682.10 0.6726
682.20 0.6724
682.30 0.6723
682.40 0.6721
682.50 0.6719
682.60 0.6718
682.70 0.6716
682.80 0.6715
682.90 0.6713
683.00 0.6711
683.10 0.671
683.20 0.6708
683.30 0.6706
683.40 0.6705
683.50 0.6703
683.60 0.6701
683.70 0.67
683.80 0.6698
683.90 0.6696
684.00 0.6695
684.10 0.6693
684.20 0.6691
684.30 0.669
684.40 0.6688
684.50 0.6687
684.60 0.6685
684.70 0.6683
684.80 0.6682
684.90 0.668
685.00 0.6679
685.10 0.6677
685.20 0.6675
685.30 0.6674
685.40 0.6672
685.50 0.667
685.60 0.6669
685.70 0.6667
685.80 0.6665
685.90 0.6664
686.00 0.6662
686.10 0.6661
686.20 0.6659
686.30 0.6657
686.40 0.6656
686.50 0.6654
686.60 0.6652
686.70 0.6651
686.80 0.6649
686.90 0.6648
687.00 0.6646
687.10 0.6645
687.20 0.6643
687.30 0.6641
687.40 0.664
687.50 0.6638
687.60 0.6636
687.70 0.6635
687.80 0.6633
687.90 0.6631
688.00 0.663
688.10 0.6628
688.20 0.6627
688.30 0.6625
688.40 0.6623
688.50 0.6622
688.60 0.662
688.70 0.6618
688.80 0.6617
688.90 0.6615
689.00 0.6613
689.10 0.6612
689.20 0.661
689.30 0.6609
689.40 0.6607
689.50 0.6605
689.60 0.6604
689.70 0.6602
689.80 0.66
689.90 0.6599
690.00 0.6597
690.10 0.6595
690.20 0.6594
690.30 0.6592
690.40 0.6591
690.50 0.6589
690.60 0.6587
690.70 0.6586
690.80 0.6584
690.90 0.6582
691.00 0.6581
691.10 0.6579
691.20 0.6578
691.30 0.6576
691.40 0.6574
691.50 0.6573
691.60 0.6571
691.70 0.6569
691.80 0.6568
691.90 0.6566
692.00 0.6565
692.10 0.6563
692.20 0.6561
692.30 0.656
692.40 0.6558
692.50 0.6557
692.60 0.6555
692.70 0.6553
692.80 0.6552
692.90 0.655
693.00 0.6548
693.10 0.6547
693.20 0.6545
693.30 0.6544
693.40 0.6542
693.50 0.654
693.60 0.6539
693.70 0.6537
693.80 0.6536
693.90 0.6534
694.00 0.6532
694.10 0.6531
694.20 0.6529
694.30 0.6528
694.40 0.6526
694.50 0.6524
694.60 0.6523
694.70 0.6521
694.80 0.652
694.90 0.6518
695.00 0.6516
695.10 0.6515
695.20 0.6513
695.30 0.6511
695.40 0.651
695.50 0.6508
695.60 0.6506
695.70 0.6505
695.80 0.6503
695.90 0.6502
696.00 0.65
696.10 0.6498
696.20 0.6497
696.30 0.6495
696.40 0.6493
696.50 0.6492
696.60 0.649
696.70 0.6489
696.80 0.6487
696.90 0.6485
697.00 0.6484
697.10 0.6482
697.20 0.648
697.30 0.6479
697.40 0.6477
697.50 0.6476
697.60 0.6474
697.70 0.6472
697.80 0.6471
697.90 0.6469
698.00 0.6467
698.10 0.6466
698.20 0.6464
698.30 0.6463
698.40 0.6461
698.50 0.6459
698.60 0.6458
698.70 0.6456
698.80 0.6455
698.90 0.6453
699.00 0.6451
699.10 0.645
699.20 0.6448
699.30 0.6446
699.40 0.6445
699.50 0.6443
699.60 0.6442
699.70 0.644
699.80 0.6438
699.90 0.6437
700.00 0.6435
700.10 0.6434
700.20 0.6432
700.30 0.643
700.40 0.6429
700.50 0.6427
700.60 0.6426
700.70 0.6424
700.80 0.6422
700.90 0.6421
701.00 0.6419
701.10 0.6418
701.20 0.6416
701.30 0.6414
701.40 0.6413
701.50 0.6411
701.60 0.641
701.70 0.6408
701.80 0.6406
701.90 0.6405
702.00 0.6403
702.10 0.6402
702.20 0.64
702.30 0.6398
702.40 0.6397
702.50 0.6395
702.60 0.6394
702.70 0.6392
702.80 0.639
702.90 0.6389
703.00 0.6387
703.10 0.6386
703.20 0.6384
703.30 0.6383
703.40 0.6381
703.50 0.6379
703.60 0.6378
703.70 0.6376
703.80 0.6375
703.90 0.6373
704.00 0.6371
704.10 0.637
704.20 0.6368
704.30 0.6367
704.40 0.6365
704.50 0.6364
704.60 0.6362
704.70 0.636
704.80 0.6359
704.90 0.6357
705.00 0.6356
705.10 0.6354
705.20 0.6353
705.30 0.6351
705.40 0.6349
705.50 0.6348
705.60 0.6346
705.70 0.6345
705.80 0.6343
705.90 0.6341
706.00 0.634
706.10 0.6338
706.20 0.6337
706.30 0.6335
706.40 0.6333
706.50 0.6332
706.60 0.633
706.70 0.6329
706.80 0.6327
706.90 0.6326
707.00 0.6324
707.10 0.6322
707.20 0.6321
707.30 0.6319
707.40 0.6318
707.50 0.6316
707.60 0.6314
707.70 0.6313
707.80 0.6311
707.90 0.631
708.00 0.6308
708.10 0.6307
708.20 0.6305
708.30 0.6303
708.40 0.6302
708.50 0.63
708.60 0.6299
708.70 0.6297
708.80 0.6296
708.90 0.6294
709.00 0.6292
709.10 0.6291
709.20 0.6289
709.30 0.6288
709.40 0.6286
709.50 0.6285
709.60 0.6283
709.70 0.6281
709.80 0.628
709.90 0.6278
710.00 0.6277
710.10 0.6275
710.20 0.6274
710.30 0.6272
710.40 0.627
710.50 0.6269
710.60 0.6267
710.70 0.6266
710.80 0.6264
710.90 0.6263
711.00 0.6261
711.10 0.6259
711.20 0.6258
711.30 0.6256
711.40 0.6255
711.50 0.6253
711.60 0.6251
711.70 0.625
711.80 0.6248
711.90 0.6247
712.00 0.6245
712.10 0.6244
712.20 0.6242
712.30 0.624
712.40 0.6239
712.50 0.6237
712.60 0.6236
712.70 0.6234
712.80 0.6233
712.90 0.6231
713.00 0.623
713.10 0.6228
713.20 0.6226
713.30 0.6225
713.40 0.6223
713.50 0.6222
713.60 0.622
713.70 0.6219
713.80 0.6217
713.90 0.6215
714.00 0.6214
714.10 0.6212
714.20 0.6211
714.30 0.6209
714.40 0.6208
714.50 0.6206
714.60 0.6205
714.70 0.6203
714.80 0.6201
714.90 0.62
715.00 0.6198
715.10 0.6197
715.20 0.6195
715.30 0.6194
715.40 0.6192
715.50 0.6191
715.60 0.6189
715.70 0.6187
715.80 0.6186
715.90 0.6184
716.00 0.6183
716.10 0.6181
716.20 0.618
716.30 0.6178
716.40 0.6177
716.50 0.6175
716.60 0.6174
716.70 0.6172
716.80 0.617
716.90 0.6169
717.00 0.6167
717.10 0.6166
717.20 0.6164
717.30 0.6163
717.40 0.6161
717.50 0.616
717.60 0.6158
717.70 0.6157
717.80 0.6155
717.90 0.6154
718.00 0.6152
718.10 0.615
718.20 0.6149
718.30 0.6147
718.40 0.6146
718.50 0.6144
718.60 0.6143
718.70 0.6141
718.80 0.614
718.90 0.6138
719.00 0.6137
719.10 0.6135
719.20 0.6134
719.30 0.6132
719.40 0.6131
719.50 0.6129
719.60 0.6128
719.70 0.6126
719.80 0.6125
719.90 0.6123
720.00 0.6121
720.10 0.612
720.20 0.6118
720.30 0.6117
720.40 0.6115
720.50 0.6114
720.60 0.6112
720.70 0.6111
720.80 0.6109
720.90 0.6108
721.00 0.6106
721.10 0.6105
721.20 0.6103
721.30 0.6101
721.40 0.61
721.50 0.6098
721.60 0.6097
721.70 0.6095
721.80 0.6094
721.90 0.6092
722.00 0.6091
722.10 0.6089
722.20 0.6088
722.30 0.6086
722.40 0.6085
722.50 0.6083
722.60 0.6082
722.70 0.608
722.80 0.6078
722.90 0.6077
723.00 0.6075
723.10 0.6074
723.20 0.6072
723.30 0.6071
723.40 0.6069
723.50 0.6068
723.60 0.6066
723.70 0.6065
723.80 0.6063
723.90 0.6062
724.00 0.606
724.10 0.6059
724.20 0.6057
724.30 0.6056
724.40 0.6054
724.50 0.6053
724.60 0.6051
724.70 0.605
724.80 0.6048
724.90 0.6047
725.00 0.6045
725.10 0.6044
725.20 0.6042
725.30 0.604
725.40 0.6039
725.50 0.6037
725.60 0.6036
725.70 0.6034
725.80 0.6033
725.90 0.6031
726.00 0.603
726.10 0.6028
726.20 0.6027
726.30 0.6025
726.40 0.6024
726.50 0.6022
726.60 0.6021
726.70 0.6019
726.80 0.6018
726.90 0.6016
727.00 0.6015
727.10 0.6013
727.20 0.6011
727.30 0.601
727.40 0.6008
727.50 0.6007
727.60 0.6005
727.70 0.6004
727.80 0.6002
727.90 0.6001
728.00 0.5999
728.10 0.5998
728.20 0.5996
728.30 0.5995
728.40 0.5993
728.50 0.5992
728.60 0.599
728.70 0.5989
728.80 0.5987
728.90 0.5986
729.00 0.5984
729.10 0.5983
729.20 0.5981
729.30 0.598
729.40 0.5978
729.50 0.5977
729.60 0.5975
729.70 0.5974
729.80 0.5972
729.90 0.5971
730.00 0.5969
730.10 0.5968
730.20 0.5966
730.30 0.5965
730.40 0.5963
730.50 0.5962
730.60 0.596
730.70 0.5959
730.80 0.5957
730.90 0.5956
731.00 0.5954
731.10 0.5953
731.20 0.5951
731.30 0.595
731.40 0.5948
731.50 0.5947
731.60 0.5945
731.70 0.5944
731.80 0.5942
731.90 0.5941
732.00 0.5939
732.10 0.5938
732.20 0.5936
732.30 0.5935
732.40 0.5933
732.50 0.5932
732.60 0.593
732.70 0.5929
732.80 0.5927
732.90 0.5926
733.00 0.5924
733.10 0.5923
733.20 0.5921
733.30 0.592
733.40 0.5918
733.50 0.5917
733.60 0.5915
733.70 0.5914
733.80 0.5912
733.90 0.5911
734.00 0.5909
734.10 0.5908
734.20 0.5906
734.30 0.5905
734.40 0.5903
734.50 0.5902
734.60 0.59
734.70 0.5899
734.80 0.5897
734.90 0.5896
735.00 0.5894
735.10 0.5893
735.20 0.5891
735.30 0.589
735.40 0.5888
735.50 0.5887
735.60 0.5885
735.70 0.5884
735.80 0.5882
735.90 0.5881
736.00 0.5879
736.10 0.5878
736.20 0.5877
736.30 0.5875
736.40 0.5874
736.50 0.5872
736.60 0.5871
736.70 0.5869
736.80 0.5868
736.90 0.5866
737.00 0.5865
737.10 0.5863
737.20 0.5862
737.30 0.586
737.40 0.5859
737.50 0.5857
737.60 0.5856
737.70 0.5854
737.80 0.5853
737.90 0.5852
738.00 0.585
738.10 0.5849
738.20 0.5847
738.30 0.5846
738.40 0.5844
738.50 0.5843
738.60 0.5841
738.70 0.584
738.80 0.5838
738.90 0.5837
739.00 0.5835
739.10 0.5834
739.20 0.5833
739.30 0.5831
739.40 0.583
739.50 0.5828
739.60 0.5827
739.70 0.5825
739.80 0.5824
739.90 0.5822
740.00 0.5821
740.10 0.5819
740.20 0.5818
740.30 0.5816
740.40 0.5815
740.50 0.5813
740.60 0.5812
740.70 0.5811
740.80 0.5809
740.90 0.5808
741.00 0.5806
741.10 0.5805
741.20 0.5803
741.30 0.5802
741.40 0.58
741.50 0.5799
741.60 0.5797
741.70 0.5796
741.80 0.5794
741.90 0.5793
742.00 0.5791
742.10 0.579
742.20 0.5788
742.30 0.5787
742.40 0.5786
742.50 0.5784
742.60 0.5783
742.70 0.5781
742.80 0.578
742.90 0.5778
743.00 0.5777
743.10 0.5775
743.20 0.5774
743.30 0.5772
743.40 0.5771
743.50 0.5769
743.60 0.5768
743.70 0.5767
743.80 0.5765
743.90 0.5764
744.00 0.5762
744.10 0.5761
744.20 0.5759
744.30 0.5758
744.40 0.5756
744.50 0.5755
744.60 0.5753
744.70 0.5752
744.80 0.5751
744.90 0.5749
745.00 0.5748
745.10 0.5746
745.20 0.5745
745.30 0.5743
745.40 0.5742
745.50 0.574
745.60 0.5739
745.70 0.5737
745.80 0.5736
745.90 0.5735
746.00 0.5733
746.10 0.5732
746.20 0.573
746.30 0.5729
746.40 0.5727
746.50 0.5726
746.60 0.5725
746.70 0.5723
746.80 0.5722
746.90 0.572
747.00 0.5719
747.10 0.5717
747.20 0.5716
747.30 0.5714
747.40 0.5713
747.50 0.5712
747.60 0.571
747.70 0.5709
747.80 0.5707
747.90 0.5706
748.00 0.5704
748.10 0.5703
748.20 0.5702
748.30 0.57
748.40 0.5699
748.50 0.5697
748.60 0.5696
748.70 0.5694
748.80 0.5693
748.90 0.5692
749.00 0.569
749.10 0.5689
749.20 0.5687
749.30 0.5686
749.40 0.5684
749.50 0.5683
749.60 0.5682
749.70 0.568
749.80 0.5679
749.90 0.5677
750.00 0.5676
750.10 0.5674
750.20 0.5673
750.30 0.5672
750.40 0.567
750.50 0.5669
750.60 0.5667
750.70 0.5666
750.80 0.5664
750.90 0.5663
751.00 0.5661
751.10 0.566
751.20 0.5659
751.30 0.5657
751.40 0.5656
751.50 0.5654
751.60 0.5653
751.70 0.5651
751.80 0.565
751.90 0.5649
752.00 0.5647
752.10 0.5646
752.20 0.5644
752.30 0.5643
752.40 0.5641
752.50 0.564
752.60 0.5639
752.70 0.5637
752.80 0.5636
752.90 0.5634
753.00 0.5633
753.10 0.5631
753.20 0.563
753.30 0.5629
753.40 0.5627
753.50 0.5626
753.60 0.5624
753.70 0.5623
753.80 0.5621
753.90 0.562
754.00 0.5619
754.10 0.5617
754.20 0.5616
754.30 0.5614
754.40 0.5613
754.50 0.5612
754.60 0.561
754.70 0.5609
754.80 0.5607
754.90 0.5606
755.00 0.5604
755.10 0.5603
755.20 0.5602
755.30 0.56
755.40 0.5599
755.50 0.5597
755.60 0.5596
755.70 0.5595
755.80 0.5593
755.90 0.5592
756.00 0.559
756.10 0.5589
756.20 0.5588
756.30 0.5586
756.40 0.5585
756.50 0.5583
756.60 0.5582
756.70 0.5581
756.80 0.5579
756.90 0.5578
757.00 0.5576
757.10 0.5575
757.20 0.5574
757.30 0.5572
757.40 0.5571
757.50 0.5569
757.60 0.5568
757.70 0.5567
757.80 0.5565
757.90 0.5564
758.00 0.5562
758.10 0.5561
758.20 0.556
758.30 0.5558
758.40 0.5557
758.50 0.5555
758.60 0.5554
758.70 0.5553
758.80 0.5551
758.90 0.555
759.00 0.5548
759.10 0.5547
759.20 0.5546
759.30 0.5544
759.40 0.5543
759.50 0.5541
759.60 0.554
759.70 0.5539
759.80 0.5537
759.90 0.5536
760.00 0.5535
760.10 0.5533
760.20 0.5532
760.30 0.553
760.40 0.5529
760.50 0.5527
760.60 0.5526
760.70 0.5525
760.80 0.5523
760.90 0.5522
761.00 0.552
761.10 0.5519
761.20 0.5518
761.30 0.5516
761.40 0.5515
761.50 0.5513
761.60 0.5512
761.70 0.5511
761.80 0.5509
761.90 0.5508
762.00 0.5506
762.10 0.5505
762.20 0.5504
762.30 0.5502
762.40 0.5501
762.50 0.5499
762.60 0.5498
762.70 0.5497
762.80 0.5495
762.90 0.5494
763.00 0.5492
763.10 0.5491
763.20 0.549
763.30 0.5488
763.40 0.5487
763.50 0.5486
763.60 0.5484
763.70 0.5483
763.80 0.5481
763.90 0.548
764.00 0.5479
764.10 0.5477
764.20 0.5476
764.30 0.5474
764.40 0.5473
764.50 0.5472
764.60 0.547
764.70 0.5469
764.80 0.5467
764.90 0.5466
765.00 0.5465
765.10 0.5463
765.20 0.5462
765.30 0.5461
765.40 0.5459
765.50 0.5458
765.60 0.5456
765.70 0.5455
765.80 0.5454
765.90 0.5452
766.00 0.5451
766.10 0.545
766.20 0.5448
766.30 0.5447
766.40 0.5445
766.50 0.5444
766.60 0.5443
766.70 0.5441
766.80 0.544
766.90 0.5439
767.00 0.5437
767.10 0.5436
767.20 0.5434
767.30 0.5433
767.40 0.5432
767.50 0.543
767.60 0.5429
767.70 0.5428
767.80 0.5426
767.90 0.5425
768.00 0.5424
768.10 0.5422
768.20 0.5421
768.30 0.5419
768.40 0.5418
768.50 0.5417
768.60 0.5415
768.70 0.5414
768.80 0.5413
768.90 0.5411
769.00 0.541
769.10 0.5409
769.20 0.5407
769.30 0.5406
769.40 0.5404
769.50 0.5403
769.60 0.5402
769.70 0.54
769.80 0.5399
769.90 0.5398
770.00 0.5396
770.10 0.5395
770.20 0.5394
770.30 0.5392
770.40 0.5391
770.50 0.5389
770.60 0.5388
770.70 0.5387
770.80 0.5385
770.90 0.5384
771.00 0.5383
771.10 0.5381
771.20 0.538
771.30 0.5378
771.40 0.5377
771.50 0.5376
771.60 0.5374
771.70 0.5373
771.80 0.5372
771.90 0.537
772.00 0.5369
772.10 0.5368
772.20 0.5366
772.30 0.5365
772.40 0.5363
772.50 0.5362
772.60 0.5361
772.70 0.5359
772.80 0.5358
772.90 0.5357
773.00 0.5355
773.10 0.5354
773.20 0.5353
773.30 0.5351
773.40 0.535
773.50 0.5349
773.60 0.5347
773.70 0.5346
773.80 0.5344
773.90 0.5343
774.00 0.5342
774.10 0.534
774.20 0.5339
774.30 0.5338
774.40 0.5336
774.50 0.5335
774.60 0.5334
774.70 0.5332
774.80 0.5331
774.90 0.533
775.00 0.5328
775.10 0.5327
775.20 0.5326
775.30 0.5324
775.40 0.5323
775.50 0.5322
775.60 0.532
775.70 0.5319
775.80 0.5317
775.90 0.5316
776.00 0.5315
776.10 0.5313
776.20 0.5312
776.30 0.5311
776.40 0.5309
776.50 0.5308
776.60 0.5307
776.70 0.5305
776.80 0.5304
776.90 0.5303
777.00 0.5301
777.10 0.53
777.20 0.5299
777.30 0.5297
777.40 0.5296
777.50 0.5295
777.60 0.5293
777.70 0.5292
777.80 0.5291
777.90 0.5289
778.00 0.5288
778.10 0.5287
778.20 0.5285
778.30 0.5284
778.40 0.5283
778.50 0.5281
778.60 0.528
778.70 0.5279
778.80 0.5277
778.90 0.5276
779.00 0.5275
779.10 0.5273
779.20 0.5272
779.30 0.5271
779.40 0.5269
779.50 0.5268
779.60 0.5267
779.70 0.5265
779.80 0.5264
779.90 0.5263
780.00 0.5261
780.10 0.526
780.20 0.5259
780.30 0.5257
780.40 0.5256
780.50 0.5255
780.60 0.5253
780.70 0.5252
780.80 0.5251
780.90 0.5249
781.00 0.5248
781.10 0.5247
781.20 0.5245
781.30 0.5244
781.40 0.5243
781.50 0.5242
781.60 0.524
781.70 0.5239
781.80 0.5238
781.90 0.5236
782.00 0.5235
782.10 0.5234
782.20 0.5232
782.30 0.5231
782.40 0.523
782.50 0.5228
782.60 0.5227
782.70 0.5226
782.80 0.5224
782.90 0.5223
783.00 0.5222
783.10 0.522
783.20 0.5219
783.30 0.5218
783.40 0.5216
783.50 0.5215
783.60 0.5214
783.70 0.5212
783.80 0.5211
783.90 0.521
784.00 0.5208
784.10 0.5207
784.20 0.5206
784.30 0.5205
784.40 0.5203
784.50 0.5202
784.60 0.5201
784.70 0.5199
784.80 0.5198
784.90 0.5197
785.00 0.5195
785.10 0.5194
785.20 0.5193
785.30 0.5191
785.40 0.519
785.50 0.5189
785.60 0.5187
785.70 0.5186
785.80 0.5185
785.90 0.5184
786.00 0.5182
786.10 0.5181
786.20 0.518
786.30 0.5178
786.40 0.5177
786.50 0.5176
786.60 0.5174
786.70 0.5173
786.80 0.5172
786.90 0.5171
787.00 0.5169
787.10 0.5168
787.20 0.5167
787.30 0.5165
787.40 0.5164
787.50 0.5163
787.60 0.5161
787.70 0.516
787.80 0.5159
787.90 0.5158
788.00 0.5156
788.10 0.5155
788.20 0.5154
788.30 0.5152
788.40 0.5151
788.50 0.515
788.60 0.5148
788.70 0.5147
788.80 0.5146
788.90 0.5145
789.00 0.5143
789.10 0.5142
789.20 0.5141
789.30 0.5139
789.40 0.5138
789.50 0.5137
789.60 0.5136
789.70 0.5134
789.80 0.5133
789.90 0.5132
790.00 0.513
790.10 0.5129
790.20 0.5128
790.30 0.5127
790.40 0.5125
790.50 0.5124
790.60 0.5123
790.70 0.5121
790.80 0.512
790.90 0.5119
791.00 0.5117
791.10 0.5116
791.20 0.5115
791.30 0.5113
791.40 0.5112
791.50 0.5111
791.60 0.511
791.70 0.5108
791.80 0.5107
791.90 0.5106
792.00 0.5104
792.10 0.5103
792.20 0.5102
792.30 0.51
792.40 0.5099
792.50 0.5098
792.60 0.5097
792.70 0.5095
792.80 0.5094
792.90 0.5093
793.00 0.5091
793.10 0.509
793.20 0.5089
793.30 0.5088
793.40 0.5086
793.50 0.5085
793.60 0.5084
793.70 0.5082
793.80 0.5081
793.90 0.508
794.00 0.5079
794.10 0.5077
794.20 0.5076
794.30 0.5075
794.40 0.5073
794.50 0.5072
794.60 0.5071
794.70 0.507
794.80 0.5068
794.90 0.5067
795.00 0.5066
795.10 0.5064
795.20 0.5063
795.30 0.5062
795.40 0.5061
795.50 0.5059
795.60 0.5058
795.70 0.5057
795.80 0.5055
795.90 0.5054
796.00 0.5053
796.10 0.5052
796.20 0.505
796.30 0.5049
796.40 0.5048
796.50 0.5046
796.60 0.5045
796.70 0.5044
796.80 0.5043
796.90 0.5041
797.00 0.504
797.10 0.5039
797.20 0.5038
797.30 0.5036
797.40 0.5035
797.50 0.5034
797.60 0.5032
797.70 0.5031
797.80 0.503
797.90 0.5029
798.00 0.5027
798.10 0.5026
798.20 0.5025
798.30 0.5024
798.40 0.5022
798.50 0.5021
798.60 0.502
798.70 0.5019
798.80 0.5017
798.90 0.5016
799.00 0.5015
799.10 0.5013
799.20 0.5012
799.30 0.5011
799.40 0.501
799.50 0.5008
799.60 0.5007
799.70 0.5006
799.80 0.5005
799.90 0.5003
800.00 0.5002
800.10 0.5001
800.20 0.5
800.30 0.4998
800.40 0.4997
800.50 0.4996
800.60 0.4995
800.70 0.4993
800.80 0.4992
800.90 0.4991
801.00 0.4989
801.10 0.4988
801.20 0.4987
801.30 0.4986
801.40 0.4984
801.50 0.4983
801.60 0.4982
801.70 0.4981
801.80 0.4979
801.90 0.4978
802.00 0.4977
802.10 0.4976
802.20 0.4974
802.30 0.4973
802.40 0.4972
802.50 0.4971
802.60 0.4969
802.70 0.4968
802.80 0.4967
802.90 0.4966
803.00 0.4964
803.10 0.4963
803.20 0.4962
803.30 0.4961
803.40 0.4959
803.50 0.4958
803.60 0.4957
803.70 0.4956
803.80 0.4954
803.90 0.4953
804.00 0.4952
804.10 0.4951
804.20 0.4949
804.30 0.4948
804.40 0.4947
804.50 0.4946
804.60 0.4944
804.70 0.4943
804.80 0.4942
804.90 0.4941
805.00 0.4939
805.10 0.4938
805.20 0.4937
805.30 0.4936
805.40 0.4934
805.50 0.4933
805.60 0.4932
805.70 0.4931
805.80 0.4929
805.90 0.4928
806.00 0.4927
806.10 0.4926
806.20 0.4924
806.30 0.4923
806.40 0.4922
806.50 0.4921
806.60 0.4919
806.70 0.4918
806.80 0.4917
806.90 0.4916
807.00 0.4915
807.10 0.4913
807.20 0.4912
807.30 0.4911
807.40 0.491
807.50 0.4908
807.60 0.4907
807.70 0.4906
807.80 0.4905
807.90 0.4903
808.00 0.4902
808.10 0.4901
808.20 0.49
808.30 0.4899
808.40 0.4897
808.50 0.4896
808.60 0.4895
808.70 0.4894
808.80 0.4892
808.90 0.4891
809.00 0.489
809.10 0.4889
809.20 0.4888
809.30 0.4886
809.40 0.4885
809.50 0.4884
809.60 0.4883
809.70 0.4881
809.80 0.488
809.90 0.4879
810.00 0.4878
810.10 0.4876
810.20 0.4875
810.30 0.4874
810.40 0.4873
810.50 0.4872
810.60 0.487
810.70 0.4869
810.80 0.4868
810.90 0.4867
811.00 0.4865
811.10 0.4864
811.20 0.4863
811.30 0.4862
811.40 0.486
811.50 0.4859
811.60 0.4858
811.70 0.4857
811.80 0.4856
811.90 0.4854
812.00 0.4853
812.10 0.4852
812.20 0.4851
812.30 0.4849
812.40 0.4848
812.50 0.4847
812.60 0.4846
812.70 0.4844
812.80 0.4843
812.90 0.4842
813.00 0.4841
813.10 0.484
813.20 0.4838
813.30 0.4837
813.40 0.4836
813.50 0.4835
813.60 0.4833
813.70 0.4832
813.80 0.4831
813.90 0.483
814.00 0.4829
814.10 0.4827
814.20 0.4826
814.30 0.4825
814.40 0.4824
814.50 0.4823
814.60 0.4821
814.70 0.482
814.80 0.4819
814.90 0.4818
815.00 0.4816
815.10 0.4815
815.20 0.4814
815.30 0.4813
815.40 0.4812
815.50 0.481
815.60 0.4809
815.70 0.4808
815.80 0.4807
815.90 0.4806
816.00 0.4804
816.10 0.4803
816.20 0.4802
816.30 0.4801
816.40 0.4799
816.50 0.4798
816.60 0.4797
816.70 0.4796
816.80 0.4795
816.90 0.4793
817.00 0.4792
817.10 0.4791
817.20 0.479
817.30 0.4789
817.40 0.4787
817.50 0.4786
817.60 0.4785
817.70 0.4784
817.80 0.4783
817.90 0.4781
818.00 0.478
818.10 0.4779
818.20 0.4778
818.30 0.4777
818.40 0.4775
818.50 0.4774
818.60 0.4773
818.70 0.4772
818.80 0.4771
818.90 0.4769
819.00 0.4768
819.10 0.4767
819.20 0.4766
819.30 0.4765
819.40 0.4763
819.50 0.4762
819.60 0.4761
819.70 0.476
819.80 0.4759
819.90 0.4757
820.00 0.4756
820.10 0.4755
820.20 0.4754
820.30 0.4753
820.40 0.4751
820.50 0.475
820.60 0.4749
820.70 0.4748
820.80 0.4747
820.90 0.4745
821.00 0.4744
821.10 0.4743
821.20 0.4742
821.30 0.4741
821.40 0.4739
821.50 0.4738
821.60 0.4737
821.70 0.4736
821.80 0.4735
821.90 0.4734
822.00 0.4732
822.10 0.4731
822.20 0.473
822.30 0.4729
822.40 0.4728
822.50 0.4726
822.60 0.4725
822.70 0.4724
822.80 0.4723
822.90 0.4722
823.00 0.472
823.10 0.4719
823.20 0.4718
823.30 0.4717
823.40 0.4716
823.50 0.4714
823.60 0.4713
823.70 0.4712
823.80 0.4711
823.90 0.471
824.00 0.4709
824.10 0.4707
824.20 0.4706
824.30 0.4705
824.40 0.4704
824.50 0.4703
824.60 0.4701
824.70 0.47
824.80 0.4699
824.90 0.4698
825.00 0.4697
825.10 0.4696
825.20 0.4694
825.30 0.4693
825.40 0.4692
825.50 0.4691
825.60 0.469
825.70 0.4689
825.80 0.4687
825.90 0.4686
826.00 0.4685
826.10 0.4684
826.20 0.4683
826.30 0.4681
826.40 0.468
826.50 0.4679
826.60 0.4678
826.70 0.4677
826.80 0.4676
826.90 0.4674
827.00 0.4673
827.10 0.4672
827.20 0.4671
827.30 0.467
827.40 0.4669
827.50 0.4667
827.60 0.4666
827.70 0.4665
827.80 0.4664
827.90 0.4663
828.00 0.4662
828.10 0.466
828.20 0.4659
828.30 0.4658
828.40 0.4657
828.50 0.4656
828.60 0.4654
828.70 0.4653
828.80 0.4652
828.90 0.4651
829.00 0.465
829.10 0.4649
829.20 0.4647
829.30 0.4646
829.40 0.4645
829.50 0.4644
829.60 0.4643
829.70 0.4642
829.80 0.464
829.90 0.4639
830.00 0.4638
830.10 0.4637
830.20 0.4636
830.30 0.4635
830.40 0.4633
830.50 0.4632
830.60 0.4631
830.70 0.463
830.80 0.4629
830.90 0.4628
831.00 0.4627
831.10 0.4625
831.20 0.4624
831.30 0.4623
831.40 0.4622
831.50 0.4621
831.60 0.462
831.70 0.4618
831.80 0.4617
831.90 0.4616
832.00 0.4615
832.10 0.4614
832.20 0.4613
832.30 0.4611
832.40 0.461
832.50 0.4609
832.60 0.4608
832.70 0.4607
832.80 0.4606
832.90 0.4604
833.00 0.4603
833.10 0.4602
833.20 0.4601
833.30 0.46
833.40 0.4599
833.50 0.4598
833.60 0.4596
833.70 0.4595
833.80 0.4594
833.90 0.4593
834.00 0.4592
834.10 0.4591
834.20 0.4589
834.30 0.4588
834.40 0.4587
834.50 0.4586
834.60 0.4585
834.70 0.4584
834.80 0.4582
834.90 0.4581
835.00 0.458
835.10 0.4579
835.20 0.4578
835.30 0.4577
835.40 0.4576
835.50 0.4574
835.60 0.4573
835.70 0.4572
835.80 0.4571
835.90 0.457
836.00 0.4569
836.10 0.4568
836.20 0.4566
836.30 0.4565
836.40 0.4564
836.50 0.4563
836.60 0.4562
836.70 0.4561
836.80 0.456
836.90 0.4558
837.00 0.4557
837.10 0.4556
837.20 0.4555
837.30 0.4554
837.40 0.4553
837.50 0.4551
837.60 0.455
837.70 0.4549
837.80 0.4548
837.90 0.4547
838.00 0.4546
838.10 0.4545
838.20 0.4543
838.30 0.4542
838.40 0.4541
838.50 0.454
838.60 0.4539
838.70 0.4538
838.80 0.4537
838.90 0.4535
839.00 0.4534
839.10 0.4533
839.20 0.4532
839.30 0.4531
839.40 0.453
839.50 0.4529
839.60 0.4527
839.70 0.4526
839.80 0.4525
839.90 0.4524
840.00 0.4523
840.10 0.4522
840.20 0.4521
840.30 0.4519
840.40 0.4518
840.50 0.4517
840.60 0.4516
840.70 0.4515
840.80 0.4514
840.90 0.4513
841.00 0.4512
841.10 0.451
841.20 0.4509
841.30 0.4508
841.40 0.4507
841.50 0.4506
841.60 0.4505
841.70 0.4504
841.80 0.4502
841.90 0.4501
842.00 0.45
842.10 0.4499
842.20 0.4498
842.30 0.4497
842.40 0.4496
842.50 0.4495
842.60 0.4493
842.70 0.4492
842.80 0.4491
842.90 0.449
843.00 0.4489
843.10 0.4488
843.20 0.4487
843.30 0.4486
843.40 0.4484
843.50 0.4483
843.60 0.4482
843.70 0.4481
843.80 0.448
843.90 0.4479
844.00 0.4478
844.10 0.4477
844.20 0.4475
844.30 0.4474
844.40 0.4473
844.50 0.4472
844.60 0.4471
844.70 0.447
844.80 0.4469
844.90 0.4468
845.00 0.4466
845.10 0.4465
845.20 0.4464
845.30 0.4463
845.40 0.4462
845.50 0.4461
845.60 0.446
845.70 0.4459
845.80 0.4458
845.90 0.4456
846.00 0.4455
846.10 0.4454
846.20 0.4453
846.30 0.4452
846.40 0.4451
846.50 0.445
846.60 0.4449
846.70 0.4448
846.80 0.4446
846.90 0.4445
847.00 0.4444
847.10 0.4443
847.20 0.4442
847.30 0.4441
847.40 0.444
847.50 0.4439
847.60 0.4438
847.70 0.4436
847.80 0.4435
847.90 0.4434
848.00 0.4433
848.10 0.4432
848.20 0.4431
848.30 0.443
848.40 0.4429
848.50 0.4428
848.60 0.4426
848.70 0.4425
848.80 0.4424
848.90 0.4423
849.00 0.4422
849.10 0.4421
849.20 0.442
849.30 0.4419
849.40 0.4418
849.50 0.4417
849.60 0.4415
849.70 0.4414
849.80 0.4413
849.90 0.4412
850.00 0.4411
850.10 0.441
850.20 0.4409
850.30 0.4408
850.40 0.4407
850.50 0.4406
850.60 0.4405
850.70 0.4403
850.80 0.4402
850.90 0.4401
851.00 0.44
851.10 0.4399
851.20 0.4398
851.30 0.4397
851.40 0.4396
851.50 0.4395
851.60 0.4394
851.70 0.4392
851.80 0.4391
851.90 0.439
852.00 0.4389
852.10 0.4388
852.20 0.4387
852.30 0.4386
852.40 0.4385
852.50 0.4384
852.60 0.4383
852.70 0.4381
852.80 0.438
852.90 0.4379
853.00 0.4378
853.10 0.4377
853.20 0.4376
853.30 0.4375
853.40 0.4374
853.50 0.4373
853.60 0.4372
853.70 0.437
853.80 0.4369
853.90 0.4368
854.00 0.4367
854.10 0.4366
854.20 0.4365
854.30 0.4364
854.40 0.4363
854.50 0.4362
854.60 0.4361
854.70 0.436
854.80 0.4358
854.90 0.4357
855.00 0.4356
855.10 0.4355
855.20 0.4354
855.30 0.4353
855.40 0.4352
855.50 0.4351
855.60 0.435
855.70 0.4349
855.80 0.4347
855.90 0.4346
856.00 0.4345
856.10 0.4344
856.20 0.4343
856.30 0.4342
856.40 0.4341
856.50 0.434
856.60 0.4339
856.70 0.4338
856.80 0.4337
856.90 0.4336
857.00 0.4334
857.10 0.4333
857.20 0.4332
857.30 0.4331
857.40 0.433
857.50 0.4329
857.60 0.4328
857.70 0.4327
857.80 0.4326
857.90 0.4325
858.00 0.4324
858.10 0.4323
858.20 0.4321
858.30 0.432
858.40 0.4319
858.50 0.4318
858.60 0.4317
858.70 0.4316
858.80 0.4315
858.90 0.4314
859.00 0.4313
859.10 0.4312
859.20 0.4311
859.30 0.431
859.40 0.4308
859.50 0.4307
859.60 0.4306
859.70 0.4305
859.80 0.4304
859.90 0.4303
860.00 0.4302
860.10 0.4301
860.20 0.43
860.30 0.4299
860.40 0.4298
860.50 0.4297
860.60 0.4296
860.70 0.4295
860.80 0.4293
860.90 0.4292
861.00 0.4291
861.10 0.429
861.20 0.4289
861.30 0.4288
861.40 0.4287
861.50 0.4286
861.60 0.4285
861.70 0.4284
861.80 0.4283
861.90 0.4282
862.00 0.4281
862.10 0.428
862.20 0.4279
862.30 0.4277
862.40 0.4276
862.50 0.4275
862.60 0.4274
862.70 0.4273
862.80 0.4272
862.90 0.4271
863.00 0.427
863.10 0.4269
863.20 0.4268
863.30 0.4267
863.40 0.4266
863.50 0.4265
863.60 0.4264
863.70 0.4263
863.80 0.4262
863.90 0.426
864.00 0.4259
864.10 0.4258
864.20 0.4257
864.30 0.4256
864.40 0.4255
864.50 0.4254
864.60 0.4253
864.70 0.4252
864.80 0.4251
864.90 0.425
865.00 0.4249
865.10 0.4248
865.20 0.4247
865.30 0.4246
865.40 0.4245
865.50 0.4244
865.60 0.4242
865.70 0.4241
865.80 0.424
865.90 0.4239
866.00 0.4238
866.10 0.4237
866.20 0.4236
866.30 0.4235
866.40 0.4234
866.50 0.4233
866.60 0.4232
866.70 0.4231
866.80 0.423
866.90 0.4229
867.00 0.4228
867.10 0.4227
867.20 0.4226
867.30 0.4225
867.40 0.4224
867.50 0.4223
867.60 0.4221
867.70 0.422
867.80 0.4219
867.90 0.4218
868.00 0.4217
868.10 0.4216
868.20 0.4215
868.30 0.4214
868.40 0.4213
868.50 0.4212
868.60 0.4211
868.70 0.421
868.80 0.4209
868.90 0.4208
869.00 0.4207
869.10 0.4206
869.20 0.4205
869.30 0.4204
869.40 0.4203
869.50 0.4202
869.60 0.42
869.70 0.4199
869.80 0.4198
869.90 0.4197
870.00 0.4196
870.10 0.4195
870.20 0.4194
870.30 0.4193
870.40 0.4192
870.50 0.4191
870.60 0.419
870.70 0.4189
870.80 0.4188
870.90 0.4187
871.00 0.4186
871.10 0.4185
871.20 0.4184
871.30 0.4183
871.40 0.4182
871.50 0.4181
871.60 0.418
871.70 0.4179
871.80 0.4178
871.90 0.4177
872.00 0.4176
872.10 0.4174
872.20 0.4173
872.30 0.4172
872.40 0.4171
872.50 0.417
872.60 0.4169
872.70 0.4168
872.80 0.4167
872.90 0.4166
873.00 0.4165
873.10 0.4164
873.20 0.4163
873.30 0.4162
873.40 0.4161
873.50 0.416
873.60 0.4159
873.70 0.4158
873.80 0.4157
873.90 0.4156
874.00 0.4155
874.10 0.4154
874.20 0.4153
874.30 0.4152
874.40 0.4151
874.50 0.415
874.60 0.4149
874.70 0.4147
874.80 0.4146
874.90 0.4145
875.00 0.4144
875.10 0.4143
875.20 0.4142
875.30 0.4141
875.40 0.414
875.50 0.4139
875.60 0.4138
875.70 0.4137
875.80 0.4136
875.90 0.4135
876.00 0.4134
876.10 0.4133
876.20 0.4132
876.30 0.4131
876.40 0.413
876.50 0.4129
876.60 0.4128
876.70 0.4127
876.80 0.4126
876.90 0.4125
877.00 0.4124
877.10 0.4123
877.20 0.4122
877.30 0.4121
877.40 0.412
877.50 0.4119
877.60 0.4118
877.70 0.4117
877.80 0.4116
877.90 0.4115
878.00 0.4114
878.10 0.4113
878.20 0.4112
878.30 0.411
878.40 0.4109
878.50 0.4108
878.60 0.4107
878.70 0.4106
878.80 0.4105
878.90 0.4104
879.00 0.4103
879.10 0.4102
879.20 0.4101
879.30 0.41
879.40 0.4099
879.50 0.4098
879.60 0.4097
879.70 0.4096
879.80 0.4095
879.90 0.4094
880.00 0.4093
880.10 0.4092
880.20 0.4091
880.30 0.409
880.40 0.4089
880.50 0.4088
880.60 0.4087
880.70 0.4086
880.80 0.4085
880.90 0.4084
881.00 0.4083
881.10 0.4082
881.20 0.4081
881.30 0.408
881.40 0.4079
881.50 0.4078
881.60 0.4077
881.70 0.4076
881.80 0.4075
881.90 0.4074
882.00 0.4073
882.10 0.4072
882.20 0.4071
882.30 0.407
882.40 0.4069
882.50 0.4068
882.60 0.4067
882.70 0.4066
882.80 0.4065
882.90 0.4064
883.00 0.4063
883.10 0.4062
883.20 0.4061
883.30 0.406
883.40 0.4059
883.50 0.4058
883.60 0.4057
883.70 0.4056
883.80 0.4055
883.90 0.4054
884.00 0.4053
884.10 0.4052
884.20 0.4051
884.30 0.405
884.40 0.4049
884.50 0.4048
884.60 0.4047
884.70 0.4046
884.80 0.4045
884.90 0.4044
885.00 0.4042
885.10 0.4041
885.20 0.404
885.30 0.4039
885.40 0.4038
885.50 0.4037
885.60 0.4036
885.70 0.4035
885.80 0.4034
885.90 0.4033
886.00 0.4032
886.10 0.4031
886.20 0.403
886.30 0.4029
886.40 0.4028
886.50 0.4027
886.60 0.4026
886.70 0.4025
886.80 0.4024
886.90 0.4023
887.00 0.4022
887.10 0.4021
887.20 0.402
887.30 0.4019
887.40 0.4018
887.50 0.4017
887.60 0.4016
887.70 0.4015
887.80 0.4014
887.90 0.4013
888.00 0.4012
888.10 0.4011
888.20 0.4011
888.30 0.401
888.40 0.4009
888.50 0.4008
888.60 0.4007
888.70 0.4006
888.80 0.4005
888.90 0.4004
889.00 0.4003
889.10 0.4002
889.20 0.4001
889.30 0.4
889.40 0.3999
889.50 0.3998
889.60 0.3997
889.70 0.3996
889.80 0.3995
889.90 0.3994
890.00 0.3993
890.10 0.3992
890.20 0.3991
890.30 0.399
890.40 0.3989
890.50 0.3988
890.60 0.3987
890.70 0.3986
890.80 0.3985
890.90 0.3984
891.00 0.3983
891.10 0.3982
891.20 0.3981
891.30 0.398
891.40 0.3979
891.50 0.3978
891.60 0.3977
891.70 0.3976
891.80 0.3975
891.90 0.3974
892.00 0.3973
892.10 0.3972
892.20 0.3971
892.30 0.397
892.40 0.3969
892.50 0.3968
892.60 0.3967
892.70 0.3966
892.80 0.3965
892.90 0.3964
893.00 0.3963
893.10 0.3962
893.20 0.3961
893.30 0.396
893.40 0.396
893.50 0.3959
893.60 0.3958
893.70 0.3957
893.80 0.3956
893.90 0.3955
894.00 0.3954
894.10 0.3953
894.20 0.3952
894.30 0.3951
894.40 0.395
894.50 0.3949
894.60 0.3948
894.70 0.3947
894.80 0.3946
894.90 0.3945
895.00 0.3944
895.10 0.3943
895.20 0.3942
895.30 0.3941
895.40 0.394
895.50 0.3939
895.60 0.3938
895.70 0.3937
895.80 0.3936
895.90 0.3935
896.00 0.3934
896.10 0.3933
896.20 0.3932
896.30 0.3931
896.40 0.393
896.50 0.3929
896.60 0.3928
896.70 0.3927
896.80 0.3926
896.90 0.3925
897.00 0.3924
897.10 0.3923
897.20 0.3922
897.30 0.3921
897.40 0.392
897.50 0.3919
897.60 0.3918
897.70 0.3917
897.80 0.3916
897.90 0.3915
898.00 0.3914
898.10 0.3913
898.20 0.3912
898.30 0.3911
898.40 0.391
898.50 0.3909
898.60 0.3908
898.70 0.3907
898.80 0.3906
898.90 0.3905
899.00 0.3904
899.10 0.3903
899.20 0.3902
899.30 0.3901
899.40 0.39
899.50 0.3899
899.60 0.3898
899.70 0.3897
899.80 0.3896
899.90 0.3895
900.00 0.3894
900.10 0.3893
900.20 0.3892
900.30 0.3891
900.40 0.389
900.50 0.3889
900.60 0.3888
900.70 0.3887
900.80 0.3886
900.90 0.3885
901.00 0.3884
901.10 0.3883
901.20 0.3882
901.30 0.3881
901.40 0.388
901.50 0.3879
901.60 0.3878
901.70 0.3877
901.80 0.3876
901.90 0.3875
902.00 0.3874
902.10 0.3873
902.20 0.3872
902.30 0.3872
902.40 0.3871
902.50 0.387
902.60 0.3869
902.70 0.3868
902.80 0.3867
902.90 0.3866
903.00 0.3865
903.10 0.3864
903.20 0.3863
903.30 0.3862
903.40 0.3862
903.50 0.3861
903.60 0.386
903.70 0.3859
903.80 0.3858
903.90 0.3857
904.00 0.3856
904.10 0.3855
904.20 0.3854
904.30 0.3853
904.40 0.3853
904.50 0.3852
904.60 0.3851
904.70 0.385
904.80 0.3849
904.90 0.3848
905.00 0.3847
905.10 0.3846
905.20 0.3845
905.30 0.3844
905.40 0.3843
905.50 0.3843
905.60 0.3842
905.70 0.3841
905.80 0.384
905.90 0.3839
906.00 0.3838
906.10 0.3837
906.20 0.3836
906.30 0.3835
906.40 0.3834
906.50 0.3834
906.60 0.3833
906.70 0.3832
906.80 0.3831
906.90 0.383
907.00 0.3829
907.10 0.3828
907.20 0.3827
907.30 0.3826
907.40 0.3825
907.50 0.3824
907.60 0.3823
907.70 0.3823
907.80 0.3822
907.90 0.3821
908.00 0.382
908.10 0.3819
908.20 0.3818
908.30 0.3817
908.40 0.3816
908.50 0.3815
908.60 0.3814
908.70 0.3813
908.80 0.3812
908.90 0.3811
909.00 0.381
909.10 0.3809
909.20 0.3809
909.30 0.3808
909.40 0.3807
909.50 0.3806
909.60 0.3805
909.70 0.3804
909.80 0.3803
909.90 0.3802
910.00 0.3801
910.10 0.38
910.20 0.3799
910.30 0.3798
910.40 0.3797
910.50 0.3796
910.60 0.3796
910.70 0.3795
910.80 0.3794
910.90 0.3793
911.00 0.3792
911.10 0.3791
911.20 0.379
911.30 0.3789
911.40 0.3788
911.50 0.3787
911.60 0.3786
911.70 0.3785
911.80 0.3784
911.90 0.3784
912.00 0.3783
912.10 0.3782
912.20 0.3781
912.30 0.378
912.40 0.3779
912.50 0.3778
912.60 0.3777
912.70 0.3776
912.80 0.3775
912.90 0.3774
913.00 0.3773
913.10 0.3772
913.20 0.3771
913.30 0.3771
913.40 0.377
913.50 0.3769
913.60 0.3768
913.70 0.3767
913.80 0.3766
913.90 0.3765
914.00 0.3764
914.10 0.3763
914.20 0.3762
914.30 0.3761
914.40 0.376
914.50 0.3759
914.60 0.3758
914.70 0.3758
914.80 0.3757
914.90 0.3756
915.00 0.3755
915.10 0.3754
915.20 0.3753
915.30 0.3752
915.40 0.3751
915.50 0.375
915.60 0.3749
915.70 0.3748
915.80 0.3747
915.90 0.3746
916.00 0.3746
916.10 0.3745
916.20 0.3744
916.30 0.3743
916.40 0.3742
916.50 0.3741
916.60 0.374
916.70 0.3739
916.80 0.3738
916.90 0.3737
917.00 0.3736
917.10 0.3735
917.20 0.3734
917.30 0.3733
917.40 0.3732
917.50 0.3731
917.60 0.373
917.70 0.3729
917.80 0.3728
917.90 0.3727
918.00 0.3726
918.10 0.3725
918.20 0.3724
918.30 0.3722
918.40 0.3721
918.50 0.372
918.60 0.3719
918.70 0.3718
918.80 0.3717
918.90 0.3716
919.00 0.3715
919.10 0.3714
919.20 0.3713
919.30 0.3712
919.40 0.3711
919.50 0.371
919.60 0.3709
919.70 0.3708
919.80 0.3707
919.90 0.3706
920.00 0.3704
920.10 0.3703
920.20 0.3702
920.30 0.3701
920.40 0.37
920.50 0.3699
920.60 0.3698
920.70 0.3697
920.80 0.3696
920.90 0.3695
921.00 0.3694
921.10 0.3693
921.20 0.3692
921.30 0.3691
921.40 0.369
921.50 0.3689
921.60 0.3688
921.70 0.3687
921.80 0.3686
921.90 0.3684
922.00 0.3683
922.10 0.3683
922.20 0.3682
922.30 0.3681
922.40 0.368
922.50 0.368
922.60 0.3679
922.70 0.3678
922.80 0.3677
922.90 0.3677
923.00 0.3676
923.10 0.3675
923.20 0.3674
923.30 0.3674
923.40 0.3673
923.50 0.3672
923.60 0.3671
923.70 0.3671
923.80 0.367
923.90 0.3669
924.00 0.3668
924.10 0.3668
924.20 0.3667
924.30 0.3666
924.40 0.3665
924.50 0.3664
924.60 0.3664
924.70 0.3663
924.80 0.3662
924.90 0.3661
925.00 0.3661
925.10 0.366
925.20 0.3659
925.30 0.3658
925.40 0.3658
925.50 0.3657
925.60 0.3656
925.70 0.3655
925.80 0.3655
925.90 0.3654
926.00 0.3653
926.10 0.3652
926.20 0.3652
926.30 0.3651
926.40 0.365
926.50 0.3649
926.60 0.3649
926.70 0.3648
926.80 0.3647
926.90 0.3646
927.00 0.3646
927.10 0.3645
927.20 0.3644
927.30 0.3643
927.40 0.3642
927.50 0.3641
927.60 0.364
927.70 0.364
927.80 0.3639
927.90 0.3638
928.00 0.3637
928.10 0.3636
928.20 0.3635
928.30 0.3634
928.40 0.3633
928.50 0.3633
928.60 0.3632
928.70 0.3631
928.80 0.363
928.90 0.3629
929.00 0.3628
929.10 0.3627
929.20 0.3626
929.30 0.3626
929.40 0.3625
929.50 0.3624
929.60 0.3623
929.70 0.3622
929.80 0.3621
929.90 0.362
930.00 0.3619
930.10 0.3619
930.20 0.3618
930.30 0.3617
930.40 0.3616
930.50 0.3615
930.60 0.3614
930.70 0.3613
930.80 0.3612
930.90 0.3612
931.00 0.3611
931.10 0.361
931.20 0.3609
931.30 0.3608
931.40 0.3607
931.50 0.3606
931.60 0.3605
931.70 0.3605
931.80 0.3604
931.90 0.3603
932.00 0.3602
932.10 0.3601
932.20 0.36
932.30 0.3599
932.40 0.3598
932.50 0.3598
932.60 0.3597
932.70 0.3596
932.80 0.3595
932.90 0.3594
933.00 0.3593
933.10 0.3592
933.20 0.3591
933.30 0.3591
933.40 0.359
933.50 0.3589
933.60 0.3588
933.70 0.3587
933.80 0.3586
933.90 0.3585
934.00 0.3584
934.10 0.3584
934.20 0.3583
934.30 0.3582
934.40 0.3581
934.50 0.358
934.60 0.3579
934.70 0.3578
934.80 0.3577
934.90 0.3577
935.00 0.3576
935.10 0.3575
935.20 0.3574
935.30 0.3573
935.40 0.3572
935.50 0.3571
935.60 0.3571
935.70 0.357
935.80 0.3569
935.90 0.3568
936.00 0.3567
936.10 0.3566
936.20 0.3565
936.30 0.3564
936.40 0.3564
936.50 0.3563
936.60 0.3562
936.70 0.3561
936.80 0.356
936.90 0.3559
937.00 0.3558
937.10 0.3558
937.20 0.3557
937.30 0.3556
937.40 0.3555
937.50 0.3554
937.60 0.3553
937.70 0.3552
937.80 0.3552
937.90 0.3551
938.00 0.355
938.10 0.3549
938.20 0.3548
938.30 0.3547
938.40 0.3546
938.50 0.3546
938.60 0.3545
938.70 0.3544
938.80 0.3543
938.90 0.3542
939.00 0.3541
939.10 0.354
939.20 0.354
939.30 0.3539
939.40 0.3538
939.50 0.3537
939.60 0.3536
939.70 0.3535
939.80 0.3534
939.90 0.3534
940.00 0.3533
940.10 0.3532
940.20 0.3531
940.30 0.353
940.40 0.3529
940.50 0.3528
940.60 0.3528
940.70 0.3527
940.80 0.3526
940.90 0.3525
941.00 0.3524
941.10 0.3523
941.20 0.3522
941.30 0.3522
941.40 0.3521
941.50 0.352
941.60 0.3519
941.70 0.3518
941.80 0.3517
941.90 0.3516
942.00 0.3516
942.10 0.3515
942.20 0.3514
942.30 0.3513
942.40 0.3512
942.50 0.3511
942.60 0.351
942.70 0.351
942.80 0.3509
942.90 0.3508
943.00 0.3507
943.10 0.3506
943.20 0.3505
943.30 0.3504
943.40 0.3504
943.50 0.3503
943.60 0.3502
943.70 0.3501
943.80 0.35
943.90 0.3499
944.00 0.3499
944.10 0.3498
944.20 0.3497
944.30 0.3496
944.40 0.3495
944.50 0.3494
944.60 0.3493
944.70 0.3493
944.80 0.3492
944.90 0.3491
945.00 0.349
945.10 0.3489
945.20 0.3488
945.30 0.3487
945.40 0.3487
945.50 0.3486
945.60 0.3485
945.70 0.3484
945.80 0.3483
945.90 0.3482
946.00 0.3481
946.10 0.3481
946.20 0.348
946.30 0.3479
946.40 0.3478
946.50 0.3477
946.60 0.3476
946.70 0.3476
946.80 0.3475
946.90 0.3474
947.00 0.3473
947.10 0.3472
947.20 0.3471
947.30 0.3471
947.40 0.347
947.50 0.3469
947.60 0.3468
947.70 0.3467
947.80 0.3466
947.90 0.3465
948.00 0.3464
948.10 0.3464
948.20 0.3463
948.30 0.3462
948.40 0.3461
948.50 0.346
948.60 0.3459
948.70 0.3458
948.80 0.3458
948.90 0.3457
949.00 0.3456
949.10 0.3455
949.20 0.3454
949.30 0.3453
949.40 0.3452
949.50 0.3451
949.60 0.345
949.70 0.345
949.80 0.3449
949.90 0.3448
950.00 0.3447
950.10 0.3446
950.20 0.3445
950.30 0.3444
950.40 0.3443
950.50 0.3442
950.60 0.3441
950.70 0.3441
950.80 0.344
950.90 0.3439
951.00 0.3438
951.10 0.3437
951.20 0.3436
951.30 0.3435
951.40 0.3434
951.50 0.3433
951.60 0.3432
951.70 0.3431
951.80 0.343
951.90 0.3429
952.00 0.3428
952.10 0.3426
952.20 0.3425
952.30 0.3424
952.40 0.3423
952.50 0.3421
952.60 0.342
952.70 0.3419
952.80 0.3417
952.90 0.3416
953.00 0.3414
953.10 0.3412
953.20 0.341
953.30 0.3409
953.40 0.3407
953.50 0.3405
953.60 0.3403
953.70 0.3401
953.80 0.3399
953.90 0.3396
954.00 0.3393
954.10 0.3391
954.20 0.3387
954.30 0.3387
954.40 0.3385
954.50 0.3387
954.60 0.3389
954.70 0.339
954.80 0.339
954.90 0.3391
955.00 0.3392
955.10 0.3392
955.20 0.3392
955.30 0.3392
955.40 0.3392
955.50 0.3393
955.60 0.3393
955.70 0.3393
955.80 0.3393
955.90 0.3392
956.00 0.3392
956.10 0.3391
956.20 0.3391
956.30 0.3391
956.40 0.339
956.50 0.339
956.60 0.3389
956.70 0.3389
956.80 0.3388
956.90 0.3388
957.00 0.3387
957.10 0.3387
957.20 0.3386
957.30 0.3386
957.40 0.3385
957.50 0.3384
957.60 0.3383
957.70 0.3383
957.80 0.3382
957.90 0.3381
958.00 0.338
958.10 0.338
958.20 0.3379
958.30 0.3378
958.40 0.3378
958.50 0.3377
958.60 0.3376
958.70 0.3375
958.80 0.3375
958.90 0.3374
959.00 0.3373
959.10 0.3372
959.20 0.3372
959.30 0.3371
959.40 0.337
959.50 0.3369
959.60 0.3369
959.70 0.3368
959.80 0.3367
959.90 0.3366
960.00 0.3365
960.10 0.3365
960.20 0.3364
960.30 0.3363
960.40 0.3362
960.50 0.3361
960.60 0.3361
960.70 0.336
960.80 0.3359
960.90 0.3358
961.00 0.3358
961.10 0.3357
961.20 0.3356
961.30 0.3355
961.40 0.3354
961.50 0.3354
961.60 0.3353
961.70 0.3352
961.80 0.3351
961.90 0.335
962.00 0.3349
962.10 0.3349
962.20 0.3348
962.30 0.3347
962.40 0.3346
962.50 0.3345
962.60 0.3345
962.70 0.3344
962.80 0.3343
962.90 0.3342
963.00 0.3342
963.10 0.3341
963.20 0.334
963.30 0.3339
963.40 0.3338
963.50 0.3338
963.60 0.3337
963.70 0.3336
963.80 0.3335
963.90 0.3334
964.00 0.3334
964.10 0.3333
964.20 0.3332
964.30 0.3331
964.40 0.333
964.50 0.333
964.60 0.3329
964.70 0.3328
964.80 0.3327
964.90 0.3326
965.00 0.3326
965.10 0.3325
965.20 0.3324
965.30 0.3323
965.40 0.3322
965.50 0.3322
965.60 0.3321
965.70 0.332
965.80 0.3319
965.90 0.3318
966.00 0.3318
966.10 0.3317
966.20 0.3316
966.30 0.3315
966.40 0.3314
966.50 0.3314
966.60 0.3313
966.70 0.3312
966.80 0.3311
966.90 0.331
967.00 0.331
967.10 0.3309
967.20 0.3308
967.30 0.3307
967.40 0.3306
967.50 0.3306
967.60 0.3305
967.70 0.3304
967.80 0.3303
967.90 0.3302
968.00 0.3302
968.10 0.3301
968.20 0.33
968.30 0.3299
968.40 0.3299
968.50 0.3298
968.60 0.3297
968.70 0.3296
968.80 0.3295
968.90 0.3295
969.00 0.3294
969.10 0.3293
969.20 0.3292
969.30 0.3291
969.40 0.3291
969.50 0.329
969.60 0.3289
969.70 0.3288
969.80 0.3288
969.90 0.3287
970.00 0.3286
970.10 0.3285
970.20 0.3284
970.30 0.3284
970.40 0.3283
970.50 0.3282
970.60 0.3281
970.70 0.3281
970.80 0.328
970.90 0.3279
971.00 0.3278
971.10 0.3277
971.20 0.3277
971.30 0.3276
971.40 0.3275
971.50 0.3274
971.60 0.3273
971.70 0.3273
971.80 0.3272
971.90 0.3271
972.00 0.327
972.10 0.3269
972.20 0.3269
972.30 0.3268
972.40 0.3267
972.50 0.3266
972.60 0.3265
972.70 0.3265
972.80 0.3264
972.90 0.3263
973.00 0.3262
973.10 0.3262
973.20 0.3261
973.30 0.326
973.40 0.3259
973.50 0.3258
973.60 0.3258
973.70 0.3257
973.80 0.3256
973.90 0.3255
974.00 0.3255
974.10 0.3254
974.20 0.3253
974.30 0.3252
974.40 0.3251
974.50 0.3251
974.60 0.325
974.70 0.3249
974.80 0.3248
974.90 0.3248
975.00 0.3247
975.10 0.3246
975.20 0.3245
975.30 0.3244
975.40 0.3244
975.50 0.3243
975.60 0.3242
975.70 0.3241
975.80 0.3241
975.90 0.324
976.00 0.3239
976.10 0.3238
976.20 0.3238
976.30 0.3237
976.40 0.3236
976.50 0.3235
976.60 0.3234
976.70 0.3234
976.80 0.3233
976.90 0.3232
977.00 0.3231
977.10 0.3231
977.20 0.323
977.30 0.3229
977.40 0.3228
977.50 0.3228
977.60 0.3227
977.70 0.3226
977.80 0.3225
977.90 0.3224
978.00 0.3224
978.10 0.3223
978.20 0.3222
978.30 0.3221
978.40 0.3221
978.50 0.322
978.60 0.3219
978.70 0.3218
978.80 0.3217
978.90 0.3217
979.00 0.3216
979.10 0.3215
979.20 0.3214
979.30 0.3214
979.40 0.3213
979.50 0.3212
979.60 0.3211
979.70 0.3211
979.80 0.321
979.90 0.3209
980.00 0.3208
980.10 0.3207
980.20 0.3207
980.30 0.3206
980.40 0.3205
980.50 0.3204
980.60 0.3204
980.70 0.3203
980.80 0.3202
980.90 0.3201
981.00 0.3201
981.10 0.32
981.20 0.3199
981.30 0.3198
981.40 0.3198
981.50 0.3197
981.60 0.3196
981.70 0.3195
981.80 0.3194
981.90 0.3194
982.00 0.3193
982.10 0.3192
982.20 0.3191
982.30 0.3191
982.40 0.319
982.50 0.3189
982.60 0.3188
982.70 0.3188
982.80 0.3187
982.90 0.3186
983.00 0.3185
983.10 0.3185
983.20 0.3184
983.30 0.3183
983.40 0.3182
983.50 0.3182
983.60 0.3181
983.70 0.318
983.80 0.3179
983.90 0.3179
984.00 0.3178
984.10 0.3177
984.20 0.3176
984.30 0.3176
984.40 0.3175
984.50 0.3174
984.60 0.3173
984.70 0.3173
984.80 0.3172
984.90 0.3171
985.00 0.317
985.10 0.317
985.20 0.3169
985.30 0.3168
985.40 0.3167
985.50 0.3166
985.60 0.3166
985.70 0.3165
985.80 0.3164
985.90 0.3163
986.00 0.3163
986.10 0.3162
986.20 0.3161
986.30 0.316
986.40 0.316
986.50 0.3159
986.60 0.3158
986.70 0.3157
986.80 0.3157
986.90 0.3156
987.00 0.3155
987.10 0.3154
987.20 0.3154
987.30 0.3153
987.40 0.3152
987.50 0.3151
987.60 0.3151
987.70 0.315
987.80 0.3149
987.90 0.3148
988.00 0.3148
988.10 0.3147
988.20 0.3146
988.30 0.3145
988.40 0.3145
988.50 0.3144
988.60 0.3143
988.70 0.3143
988.80 0.3142
988.90 0.3141
989.00 0.314
989.10 0.314
989.20 0.3139
989.30 0.3138
989.40 0.3137
989.50 0.3137
989.60 0.3136
989.70 0.3135
989.80 0.3134
989.90 0.3134
990.00 0.3133
990.10 0.3132
990.20 0.3131
990.30 0.3131
990.40 0.313
990.50 0.3129
990.60 0.3128
990.70 0.3128
990.80 0.3127
990.90 0.3126
991.00 0.3125
991.10 0.3125
991.20 0.3124
991.30 0.3123
991.40 0.3122
991.50 0.3122
991.60 0.3121
991.70 0.312
991.80 0.3119
991.90 0.3119
992.00 0.3118
992.10 0.3117
992.20 0.3116
992.30 0.3116
992.40 0.3115
992.50 0.3114
992.60 0.3113
992.70 0.3113
992.80 0.3112
992.90 0.3111
993.00 0.311
993.10 0.311
993.20 0.3109
993.30 0.3108
993.40 0.3107
993.50 0.3107
993.60 0.3106
993.70 0.3105
993.80 0.3104
993.90 0.3104
994.00 0.3103
994.10 0.3102
994.20 0.3102
994.30 0.3101
994.40 0.31
994.50 0.3099
994.60 0.3099
994.70 0.3098
994.80 0.3097
994.90 0.3096
995.00 0.3096
995.10 0.3095
995.20 0.3094
995.30 0.3093
995.40 0.3093
995.50 0.3092
995.60 0.3091
995.70 0.3091
995.80 0.309
995.90 0.3089
996.00 0.3088
996.10 0.3088
996.20 0.3087
996.30 0.3086
996.40 0.3085
996.50 0.3085
996.60 0.3084
996.70 0.3083
996.80 0.3082
996.90 0.3082
997.00 0.3081
997.10 0.308
997.20 0.3079
997.30 0.3079
997.40 0.3078
997.50 0.3077
997.60 0.3076
997.70 0.3076
997.80 0.3075
997.90 0.3074
998.00 0.3073
998.10 0.3073
998.20 0.3072
998.30 0.3071
998.40 0.307
998.50 0.307
998.60 0.3069
998.70 0.3068
998.80 0.3067
998.90 0.3066
999.00 0.3066
999.10 0.3065
999.20 0.3064
999.30 0.3063
999.40 0.3063
999.50 0.3062
999.60 0.3061
999.70 0.306
999.80 0.3059
999.90 0.3059
1000.00 0.3058
1000.10 0.3057
1000.20 0.3056
1000.30 0.3055
1000.40 0.3054
1000.50 0.3053
1000.60 0.3052
1000.70 0.3052
1000.80 0.3051
1000.90 0.305
1001.00 0.3049
1001.10 0.3048
1001.20 0.3047
1001.30 0.3046
1001.40 0.3046
1001.50 0.3045
1001.60 0.3044
1001.70 0.3043
1001.80 0.3042
1001.90 0.3041
1002.00 0.304
1002.10 0.3038
1002.20 0.3037
1002.30 0.3035
1002.40 0.3034
1002.50 0.3032
1002.60 0.3031
1002.70 0.3029
1002.80 0.3028
1002.90 0.3026
1003.00 0.3025
1003.10 0.3023
1003.20 0.3021
1003.30 0.3018
1003.40 0.3015
1003.50 0.3012
1003.60 0.301
1003.70 0.3007
1003.80 0.3004
1003.90 0.3
1004.00 0.2996
1004.10 0.2992
1004.20 0.2988
1004.30 0.2982
1004.40 0.2977
1004.50 0.2969
1004.60 0.2964
1004.70 0.2965
1004.80 0.2971
1004.90 0.2976
1005.00 0.298
1005.10 0.2983
1005.20 0.2986
1005.30 0.2989
1005.40 0.2991
1005.50 0.2993
1005.60 0.2994
1005.70 0.2996
1005.80 0.2997
1005.90 0.2998
1006.00 0.3
1006.10 0.3001
1006.20 0.3001
1006.30 0.3002
1006.40 0.3002
1006.50 0.3002
1006.60 0.3002
1006.70 0.3002
1006.80 0.3002
1006.90 0.3002
1007.00 0.3003
1007.10 0.3002
1007.20 0.3002
1007.30 0.3002
1007.40 0.3001
1007.50 0.3001
1007.60 0.3001
1007.70 0.3
1007.80 0.3
1007.90 0.2999
1008.00 0.2999
1008.10 0.2998
1008.20 0.2997
1008.30 0.2997
1008.40 0.2996
1008.50 0.2996
1008.60 0.2995
1008.70 0.2995
1008.80 0.2994
1008.90 0.2994
1009.00 0.2993
1009.10 0.2992
1009.20 0.2992
1009.30 0.2991
1009.40 0.2991
1009.50 0.299
1009.60 0.299
1009.70 0.2989
1009.80 0.2988
1009.90 0.2988
1010.00 0.2987
1010.10 0.2986
1010.20 0.2986
1010.30 0.2985
1010.40 0.2984
1010.50 0.2984
1010.60 0.2983
1010.70 0.2982
1010.80 0.2982
1010.90 0.2981
1011.00 0.298
1011.10 0.298
1011.20 0.2979
1011.30 0.2978
1011.40 0.2978
1011.50 0.2977
1011.60 0.2976
1011.70 0.2976
1011.80 0.2975
1011.90 0.2974
1012.00 0.2974
1012.10 0.2973
1012.20 0.2972
1012.30 0.2971
1012.40 0.2971
1012.50 0.297
1012.60 0.2969
1012.70 0.2969
1012.80 0.2968
1012.90 0.2967
1013.00 0.2967
1013.10 0.2966
1013.20 0.2965
1013.30 0.2965
1013.40 0.2964
1013.50 0.2963
1013.60 0.2963
1013.70 0.2962
1013.80 0.2961
1013.90 0.2961
1014.00 0.296
1014.10 0.2959
1014.20 0.2958
1014.30 0.2958
1014.40 0.2957
1014.50 0.2956
1014.60 0.2956
1014.70 0.2955
1014.80 0.2954
1014.90 0.2954
1015.00 0.2953
1015.10 0.2952
1015.20 0.2952
1015.30 0.2951
1015.40 0.295
1015.50 0.295
1015.60 0.2949
1015.70 0.2948
1015.80 0.2947
1015.90 0.2947
1016.00 0.2946
1016.10 0.2945
1016.20 0.2945
1016.30 0.2944
1016.40 0.2943
1016.50 0.2943
1016.60 0.2942
1016.70 0.2941
1016.80 0.2941
1016.90 0.294
1017.00 0.2939
1017.10 0.2938
1017.20 0.2938
1017.30 0.2937
1017.40 0.2936
1017.50 0.2936
1017.60 0.2935
1017.70 0.2934
1017.80 0.2934
1017.90 0.2933
1018.00 0.2932
1018.10 0.2932
1018.20 0.2931
1018.30 0.293
1018.40 0.2929
1018.50 0.2929
1018.60 0.2928
1018.70 0.2927
1018.80 0.2927
1018.90 0.2926
1019.00 0.2925
1019.10 0.2925
1019.20 0.2924
1019.30 0.2923
1019.40 0.2923
1019.50 0.2922
1019.60 0.2921
1019.70 0.2921
1019.80 0.292
1019.90 0.2919
1020.00 0.2919
1020.10 0.2918
1020.20 0.2917
1020.30 0.2917
1020.40 0.2916
1020.50 0.2915
1020.60 0.2915
1020.70 0.2914
1020.80 0.2913
1020.90 0.2912
1021.00 0.2912
1021.10 0.2911
1021.20 0.291
1021.30 0.291
1021.40 0.2909
1021.50 0.2908
1021.60 0.2908
1021.70 0.2907
1021.80 0.2906
1021.90 0.2906
1022.00 0.2905
1022.10 0.2904
1022.20 0.2904
1022.30 0.2903
1022.40 0.2902
1022.50 0.2902
1022.60 0.2901
1022.70 0.29
1022.80 0.29
1022.90 0.2899
1023.00 0.2898
1023.10 0.2898
1023.20 0.2897
1023.30 0.2896
1023.40 0.2895
1023.50 0.2895
1023.60 0.2894
1023.70 0.2893
1023.80 0.2893
1023.90 0.2892
1024.00 0.2891
1024.10 0.2891
1024.20 0.289
1024.30 0.2889
1024.40 0.2889
1024.50 0.2888
1024.60 0.2887
1024.70 0.2887
1024.80 0.2886
1024.90 0.2885
1025.00 0.2885
1025.10 0.2884
1025.20 0.2883
1025.30 0.2883
1025.40 0.2882
1025.50 0.2881
1025.60 0.2881
1025.70 0.288
1025.80 0.2879
1025.90 0.2879
1026.00 0.2878
1026.10 0.2877
1026.20 0.2877
1026.30 0.2876
1026.40 0.2875
1026.50 0.2875
1026.60 0.2874
1026.70 0.2873
1026.80 0.2873
1026.90 0.2872
1027.00 0.2871
1027.10 0.2871
1027.20 0.287
1027.30 0.2869
1027.40 0.2869
1027.50 0.2868
1027.60 0.2867
1027.70 0.2867
1027.80 0.2866
1027.90 0.2865
1028.00 0.2865
1028.10 0.2864
1028.20 0.2863
1028.30 0.2863
1028.40 0.2862
1028.50 0.2861
1028.60 0.2861
1028.70 0.286
1028.80 0.2859
1028.90 0.2859
1029.00 0.2858
1029.10 0.2857
1029.20 0.2857
1029.30 0.2856
1029.40 0.2855
1029.50 0.2855
1029.60 0.2854
1029.70 0.2853
1029.80 0.2853
1029.90 0.2852
1030.00 0.2851
1030.10 0.2851
1030.20 0.285
1030.30 0.2849
1030.40 0.2849
1030.50 0.2848
1030.60 0.2847
1030.70 0.2847
1030.80 0.2846
1030.90 0.2845
1031.00 0.2845
1031.10 0.2844
1031.20 0.2843
1031.30 0.2843
1031.40 0.2842
1031.50 0.2841
1031.60 0.2841
1031.70 0.284
1031.80 0.2839
1031.90 0.2839
1032.00 0.2838
1032.10 0.2837
1032.20 0.2837
1032.30 0.2836
1032.40 0.2835
1032.50 0.2835
1032.60 0.2834
1032.70 0.2833
1032.80 0.2833
1032.90 0.2832
1033.00 0.2831
1033.10 0.2831
1033.20 0.283
1033.30 0.2829
1033.40 0.2829
1033.50 0.2828
1033.60 0.2827
1033.70 0.2827
1033.80 0.2826
1033.90 0.2825
1034.00 0.2825
1034.10 0.2824
1034.20 0.2823
1034.30 0.2823
1034.40 0.2822
1034.50 0.2821
1034.60 0.2821
1034.70 0.282
1034.80 0.2819
1034.90 0.2819
1035.00 0.2818
1035.10 0.2818
1035.20 0.2817
1035.30 0.2816
1035.40 0.2816
1035.50 0.2815
1035.60 0.2814
1035.70 0.2814
1035.80 0.2813
1035.90 0.2812
1036.00 0.2812
1036.10 0.2811
1036.20 0.281
1036.30 0.281
1036.40 0.2809
1036.50 0.2808
1036.60 0.2808
1036.70 0.2807
1036.80 0.2806
1036.90 0.2806
1037.00 0.2805
1037.10 0.2804
1037.20 0.2804
1037.30 0.2803
1037.40 0.2802
1037.50 0.2802
1037.60 0.2801
1037.70 0.2801
1037.80 0.28
1037.90 0.2799
1038.00 0.2799
1038.10 0.2798
1038.20 0.2797
1038.30 0.2797
1038.40 0.2796
1038.50 0.2795
1038.60 0.2795
1038.70 0.2794
1038.80 0.2793
1038.90 0.2793
1039.00 0.2792
1039.10 0.2791
1039.20 0.2791
1039.30 0.279
1039.40 0.279
1039.50 0.2789
1039.60 0.2788
1039.70 0.2788
1039.80 0.2787
1039.90 0.2786
1040.00 0.2786
1040.10 0.2785
1040.20 0.2784
1040.30 0.2784
1040.40 0.2783
1040.50 0.2782
1040.60 0.2782
1040.70 0.2781
1040.80 0.278
1040.90 0.278
1041.00 0.2779
1041.10 0.2779
1041.20 0.2778
1041.30 0.2777
1041.40 0.2777
1041.50 0.2776
1041.60 0.2775
1041.70 0.2775
1041.80 0.2774
1041.90 0.2773
1042.00 0.2773
1042.10 0.2772
1042.20 0.2771
1042.30 0.2771
1042.40 0.277
1042.50 0.277
1042.60 0.2769
1042.70 0.2768
1042.80 0.2768
1042.90 0.2767
1043.00 0.2766
1043.10 0.2766
1043.20 0.2765
1043.30 0.2764
1043.40 0.2764
1043.50 0.2763
1043.60 0.2762
1043.70 0.2762
1043.80 0.2761
1043.90 0.2761
1044.00 0.276
1044.10 0.2759
1044.20 0.2759
1044.30 0.2758
1044.40 0.2757
1044.50 0.2757
1044.60 0.2756
1044.70 0.2755
1044.80 0.2755
1044.90 0.2754
1045.00 0.2754
1045.10 0.2753
1045.20 0.2752
1045.30 0.2752
1045.40 0.2751
1045.50 0.275
1045.60 0.275
1045.70 0.2749
1045.80 0.2748
1045.90 0.2748
1046.00 0.2747
1046.10 0.2747
1046.20 0.2746
1046.30 0.2745
1046.40 0.2745
1046.50 0.2744
1046.60 0.2743
1046.70 0.2743
1046.80 0.2742
1046.90 0.2741
1047.00 0.2741
1047.10 0.274
1047.20 0.274
1047.30 0.2739
1047.40 0.2738
1047.50 0.2738
1047.60 0.2737
1047.70 0.2736
1047.80 0.2736
1047.90 0.2735
1048.00 0.2735
1048.10 0.2734
1048.20 0.2733
1048.30 0.2733
1048.40 0.2732
1048.50 0.2731
1048.60 0.2731
1048.70 0.273
1048.80 0.273
1048.90 0.2729
1049.00 0.2728
1049.10 0.2728
1049.20 0.2727
1049.30 0.2726
1049.40 0.2726
1049.50 0.2725
1049.60 0.2724
1049.70 0.2724
1049.80 0.2723
1049.90 0.2723
1050.00 0.2722
1050.10 0.2721
1050.20 0.2721
1050.30 0.272
1050.40 0.2719
1050.50 0.2719
1050.60 0.2718
1050.70 0.2718
1050.80 0.2717
1050.90 0.2716
1051.00 0.2716
1051.10 0.2715
1051.20 0.2714
1051.30 0.2714
1051.40 0.2713
1051.50 0.2713
1051.60 0.2712
1051.70 0.2711
1051.80 0.2711
1051.90 0.271
1052.00 0.2709
1052.10 0.2709
1052.20 0.2708
1052.30 0.2708
1052.40 0.2707
1052.50 0.2706
1052.60 0.2706
1052.70 0.2705
1052.80 0.2704
1052.90 0.2704
1053.00 0.2703
1053.10 0.2703
1053.20 0.2702
1053.30 0.2701
1053.40 0.2701
1053.50 0.27
1053.60 0.27
1053.70 0.2699
1053.80 0.2698
1053.90 0.2698
1054.00 0.2697
1054.10 0.2696
1054.20 0.2696
1054.30 0.2695
1054.40 0.2695
1054.50 0.2694
1054.60 0.2693
1054.70 0.2693
1054.80 0.2692
1054.90 0.2691
1055.00 0.2691
1055.10 0.269
1055.20 0.269
1055.30 0.2689
1055.40 0.2688
1055.50 0.2688
1055.60 0.2687
1055.70 0.2687
1055.80 0.2686
1055.90 0.2685
1056.00 0.2685
1056.10 0.2684
1056.20 0.2683
1056.30 0.2683
1056.40 0.2682
1056.50 0.2682
1056.60 0.2681
1056.70 0.268
1056.80 0.268
1056.90 0.2679
1057.00 0.2679
1057.10 0.2678
1057.20 0.2677
1057.30 0.2677
1057.40 0.2676
1057.50 0.2675
1057.60 0.2675
1057.70 0.2674
1057.80 0.2674
1057.90 0.2673
1058.00 0.2672
1058.10 0.2672
1058.20 0.2671
1058.30 0.2671
1058.40 0.267
1058.50 0.2669
1058.60 0.2669
1058.70 0.2668
1058.80 0.2667
1058.90 0.2667
1059.00 0.2666
1059.10 0.2666
1059.20 0.2665
1059.30 0.2664
1059.40 0.2664
1059.50 0.2663
1059.60 0.2663
1059.70 0.2662
1059.80 0.2661
1059.90 0.2661
1060.00 0.266
1060.10 0.2659
1060.20 0.2659
1060.30 0.2658
1060.40 0.2658
1060.50 0.2657
1060.60 0.2656
1060.70 0.2656
1060.80 0.2655
1060.90 0.2655
1061.00 0.2654
1061.10 0.2653
1061.20 0.2653
1061.30 0.2652
1061.40 0.2651
1061.50 0.2651
1061.60 0.265
1061.70 0.265
1061.80 0.2649
1061.90 0.2648
1062.00 0.2648
1062.10 0.2647
1062.20 0.2647
1062.30 0.2646
1062.40 0.2645
1062.50 0.2645
1062.60 0.2644
1062.70 0.2644
1062.80 0.2643
1062.90 0.2642
1063.00 0.2642
1063.10 0.2641
1063.20 0.2641
1063.30 0.264
1063.40 0.2639
1063.50 0.2639
1063.60 0.2638
1063.70 0.2637
1063.80 0.2637
1063.90 0.2636
1064.00 0.2636
1064.10 0.2635
1064.20 0.2634
1064.30 0.2634
1064.40 0.2633
1064.50 0.2633
1064.60 0.2632
1064.70 0.2631
1064.80 0.2631
1064.90 0.263
1065.00 0.263
1065.10 0.2629
1065.20 0.2628
1065.30 0.2628
1065.40 0.2627
1065.50 0.2627
1065.60 0.2626
1065.70 0.2625
1065.80 0.2625
1065.90 0.2624
1066.00 0.2624
1066.10 0.2623
1066.20 0.2622
1066.30 0.2622
1066.40 0.2621
1066.50 0.2621
1066.60 0.262
1066.70 0.2619
1066.80 0.2619
1066.90 0.2618
1067.00 0.2618
1067.10 0.2617
1067.20 0.2616
1067.30 0.2616
1067.40 0.2615
1067.50 0.2615
1067.60 0.2614
1067.70 0.2613
1067.80 0.2613
1067.90 0.2612
1068.00 0.2612
1068.10 0.2611
1068.20 0.261
1068.30 0.261
1068.40 0.2609
1068.50 0.2609
1068.60 0.2608
1068.70 0.2607
1068.80 0.2607
1068.90 0.2606
1069.00 0.2606
1069.10 0.2605
1069.20 0.2605
1069.30 0.2604
1069.40 0.2603
1069.50 0.2603
1069.60 0.2602
1069.70 0.2602
1069.80 0.2601
1069.90 0.26
1070.00 0.26
1070.10 0.2599
1070.20 0.2599
1070.30 0.2598
1070.40 0.2597
1070.50 0.2597
1070.60 0.2596
1070.70 0.2596
1070.80 0.2595
1070.90 0.2594
1071.00 0.2594
1071.10 0.2593
1071.20 0.2593
1071.30 0.2592
1071.40 0.2592
1071.50 0.2591
1071.60 0.259
1071.70 0.259
1071.80 0.2589
1071.90 0.2589
1072.00 0.2588
1072.10 0.2587
1072.20 0.2587
1072.30 0.2586
1072.40 0.2586
1072.50 0.2585
1072.60 0.2584
1072.70 0.2584
1072.80 0.2583
1072.90 0.2583
1073.00 0.2582
1073.10 0.2581
1073.20 0.2581
1073.30 0.258
1073.40 0.258
1073.50 0.2579
1073.60 0.2579
1073.70 0.2578
1073.80 0.2577
1073.90 0.2577
1074.00 0.2576
1074.10 0.2576
1074.20 0.2575
1074.30 0.2574
1074.40 0.2574
1074.50 0.2573
1074.60 0.2573
1074.70 0.2572
1074.80 0.2571
1074.90 0.2571
1075.00 0.257
1075.10 0.257
1075.20 0.2569
1075.30 0.2569
1075.40 0.2568
1075.50 0.2567
1075.60 0.2567
1075.70 0.2566
1075.80 0.2566
1075.90 0.2565
1076.00 0.2564
1076.10 0.2564
1076.20 0.2563
1076.30 0.2563
1076.40 0.2562
1076.50 0.2562
1076.60 0.2561
1076.70 0.256
1076.80 0.256
1076.90 0.2559
1077.00 0.2559
1077.10 0.2558
1077.20 0.2558
1077.30 0.2557
1077.40 0.2556
1077.50 0.2556
1077.60 0.2555
1077.70 0.2555
1077.80 0.2554
1077.90 0.2553
1078.00 0.2553
1078.10 0.2552
1078.20 0.2552
1078.30 0.2551
1078.40 0.255
1078.50 0.255
1078.60 0.2549
1078.70 0.2549
1078.80 0.2548
1078.90 0.2548
1079.00 0.2547
1079.10 0.2546
1079.20 0.2546
1079.30 0.2545
1079.40 0.2545
1079.50 0.2544
1079.60 0.2543
1079.70 0.2543
1079.80 0.2542
1079.90 0.2542
1080.00 0.2541
1080.10 0.2541
1080.20 0.254
1080.30 0.2539
1080.40 0.2539
1080.50 0.2538
1080.60 0.2538
1080.70 0.2537
1080.80 0.2537
1080.90 0.2536
1081.00 0.2535
1081.10 0.2535
1081.20 0.2534
1081.30 0.2534
1081.40 0.2533
1081.50 0.2532
1081.60 0.2532
1081.70 0.2531
1081.80 0.2531
1081.90 0.253
1082.00 0.253
1082.10 0.2529
1082.20 0.2529
1082.30 0.2528
1082.40 0.2527
1082.50 0.2527
1082.60 0.2526
1082.70 0.2526
1082.80 0.2525
1082.90 0.2524
1083.00 0.2524
1083.10 0.2523
1083.20 0.2523
1083.30 0.2522
1083.40 0.2521
1083.50 0.2521
1083.60 0.252
1083.70 0.252
1083.80 0.2519
1083.90 0.2519
1084.00 0.2518
1084.10 0.2517
1084.20 0.2517
1084.30 0.2516
1084.40 0.2516
1084.50 0.2515
1084.60 0.2515
1084.70 0.2514
1084.80 0.2513
1084.90 0.2513
1085.00 0.2512
1085.10 0.2512
1085.20 0.2511
1085.30 0.2511
1085.40 0.251
1085.50 0.2509
1085.60 0.2509
1085.70 0.2508
1085.80 0.2508
1085.90 0.2507
1086.00 0.2506
1086.10 0.2506
1086.20 0.2505
1086.30 0.2505
1086.40 0.2504
1086.50 0.2503
1086.60 0.2503
1086.70 0.2502
1086.80 0.2502
1086.90 0.2501
1087.00 0.2501
1087.10 0.25
1087.20 0.2499
1087.30 0.2499
1087.40 0.2498
1087.50 0.2497
1087.60 0.2497
1087.70 0.2496
1087.80 0.2496
1087.90 0.2495
1088.00 0.2494
1088.10 0.2494
1088.20 0.2493
1088.30 0.2493
1088.40 0.2492
1088.50 0.2491
1088.60 0.249
1088.70 0.249
1088.80 0.2489
1088.90 0.2488
1089.00 0.2487
1089.10 0.2487
1089.20 0.2486
1089.30 0.2485
1089.40 0.2484
1089.50 0.2484
1089.60 0.2483
1089.70 0.2482
1089.80 0.2481
1089.90 0.2481
1090.00 0.248
1090.10 0.2479
1090.20 0.2478
1090.30 0.2477
1090.40 0.2477
1090.50 0.2476
1090.60 0.2474
1090.70 0.2473
1090.80 0.2471
1090.90 0.247
1091.00 0.2468
1091.10 0.2466
1091.20 0.2465
1091.30 0.2463
1091.40 0.2462
1091.50 0.246
1091.60 0.2459
1091.70 0.2457
1091.80 0.2456
1091.90 0.2454
1092.00 0.2452
1092.10 0.2448
1092.20 0.2444
1092.30 0.244
1092.40 0.2436
1092.50 0.2432
1092.60 0.2428
1092.70 0.2423
1092.80 0.2415
1092.90 0.2408
1093.00 0.24
1093.10 0.2391
1093.20 0.238
1093.30 0.2368
1093.40 0.2348
1093.50 0.2343
1093.60 0.236
1093.70 0.2373
1093.80 0.2383
1093.90 0.2392
1094.00 0.2399
1094.10 0.2405
1094.20 0.2412
1094.30 0.2417
1094.40 0.242
1094.50 0.2423
1094.60 0.2426
1094.70 0.2429
1094.80 0.2432
1094.90 0.2434
1095.00 0.2437
1095.10 0.2437
1095.20 0.2437
1095.30 0.2438
1095.40 0.2438
1095.50 0.2439
1095.60 0.2439
1095.70 0.244
1095.80 0.244
1095.90 0.244
1096.00 0.2441
1096.10 0.2441
1096.20 0.2442
1096.30 0.2442
1096.40 0.2443
1096.50 0.2443
1096.60 0.2443
1096.70 0.2442
1096.80 0.2442
1096.90 0.2442
1097.00 0.2442
1097.10 0.2441
1097.20 0.2441
1097.30 0.2441
1097.40 0.244
1097.50 0.244
1097.60 0.2439
1097.70 0.2439
1097.80 0.2439
1097.90 0.2438
1098.00 0.2438
1098.10 0.2437
1098.20 0.2437
1098.30 0.2436
1098.40 0.2436
1098.50 0.2436
1098.60 0.2435
1098.70 0.2435
1098.80 0.2434
1098.90 0.2434
1099.00 0.2433
1099.10 0.2433
1099.20 0.2432
1099.30 0.2432
1099.40 0.2431
1099.50 0.2431
1099.60 0.243
1099.70 0.243
1099.80 0.2429
1099.90 0.2429
1100.00 0.2428
1100.10 0.2428
1100.20 0.2427
1100.30 0.2427
1100.40 0.2426
1100.50 0.2426
1100.60 0.2425
1100.70 0.2425
1100.80 0.2424
1100.90 0.2423
1101.00 0.2423
1101.10 0.2422
1101.20 0.2422
1101.30 0.2421
1101.40 0.2421
1101.50 0.242
1101.60 0.242
1101.70 0.2419
1101.80 0.2419
1101.90 0.2418
1102.00 0.2418
1102.10 0.2417
1102.20 0.2417
1102.30 0.2416
1102.40 0.2416
1102.50 0.2415
1102.60 0.2414
1102.70 0.2414
1102.80 0.2413
1102.90 0.2413
1103.00 0.2412
1103.10 0.2412
1103.20 0.2411
1103.30 0.2411
1103.40 0.241
1103.50 0.241
1103.60 0.2409
1103.70 0.2409
1103.80 0.2408
1103.90 0.2408
1104.00 0.2407
1104.10 0.2407
1104.20 0.2406
1104.30 0.2405
1104.40 0.2405
1104.50 0.2404
1104.60 0.2404
1104.70 0.2403
1104.80 0.2403
1104.90 0.2402
1105.00 0.2402
1105.10 0.2401
1105.20 0.2401
1105.30 0.24
1105.40 0.24
1105.50 0.2399
1105.60 0.2399
1105.70 0.2398
1105.80 0.2397
1105.90 0.2397
1106.00 0.2396
1106.10 0.2396
1106.20 0.2395
1106.30 0.2395
1106.40 0.2394
1106.50 0.2394
1106.60 0.2393
1106.70 0.2393
1106.80 0.2392
1106.90 0.2392
1107.00 0.2391
1107.10 0.239
1107.20 0.239
1107.30 0.2389
1107.40 0.2389
1107.50 0.2388
1107.60 0.2388
1107.70 0.2387
1107.80 0.2387
1107.90 0.2386
1108.00 0.2386
1108.10 0.2385
1108.20 0.2385
1108.30 0.2384
1108.40 0.2384
1108.50 0.2383
1108.60 0.2383
1108.70 0.2382
1108.80 0.2381
1108.90 0.2381
1109.00 0.238
1109.10 0.238
1109.20 0.2379
1109.30 0.2379
1109.40 0.2378
1109.50 0.2378
1109.60 0.2377
1109.70 0.2377
1109.80 0.2376
1109.90 0.2376
1110.00 0.2375
1110.10 0.2375
1110.20 0.2374
1110.30 0.2374
1110.40 0.2373
1110.50 0.2372
1110.60 0.2372
1110.70 0.2371
1110.80 0.2371
1110.90 0.237
1111.00 0.237
1111.10 0.2369
1111.20 0.2369
1111.30 0.2368
1111.40 0.2368
1111.50 0.2367
1111.60 0.2367
1111.70 0.2366
1111.80 0.2366
1111.90 0.2365
1112.00 0.2365
1112.10 0.2364
1112.20 0.2363
1112.30 0.2363
1112.40 0.2362
1112.50 0.2362
1112.60 0.2361
1112.70 0.2361
1112.80 0.236
1112.90 0.236
1113.00 0.2359
1113.10 0.2359
1113.20 0.2358
1113.30 0.2358
1113.40 0.2357
1113.50 0.2357
1113.60 0.2356
1113.70 0.2356
1113.80 0.2355
1113.90 0.2355
1114.00 0.2354
1114.10 0.2354
1114.20 0.2353
1114.30 0.2353
1114.40 0.2352
1114.50 0.2352
1114.60 0.2351
1114.70 0.235
1114.80 0.235
1114.90 0.2349
1115.00 0.2349
1115.10 0.2348
1115.20 0.2348
1115.30 0.2347
1115.40 0.2347
1115.50 0.2346
1115.60 0.2346
1115.70 0.2345
1115.80 0.2345
1115.90 0.2344
1116.00 0.2344
1116.10 0.2343
1116.20 0.2343
1116.30 0.2342
1116.40 0.2342
1116.50 0.2341
1116.60 0.234
1116.70 0.234
1116.80 0.2339
1116.90 0.2339
1117.00 0.2338
1117.10 0.2338
1117.20 0.2337
1117.30 0.2337
1117.40 0.2336
1117.50 0.2336
1117.60 0.2335
1117.70 0.2335
1117.80 0.2334
1117.90 0.2334
1118.00 0.2333
1118.10 0.2333
1118.20 0.2332
1118.30 0.2332
1118.40 0.2331
1118.50 0.2331
1118.60 0.233
1118.70 0.233
1118.80 0.2329
1118.90 0.2329
1119.00 0.2328
1119.10 0.2328
1119.20 0.2327
1119.30 0.2326
1119.40 0.2326
1119.50 0.2325
1119.60 0.2325
1119.70 0.2324
1119.80 0.2324
1119.90 0.2323
1120.00 0.2323
1120.10 0.2322
1120.20 0.2322
1120.30 0.2321
1120.40 0.2321
1120.50 0.232
1120.60 0.232
1120.70 0.2319
1120.80 0.2319
1120.90 0.2318
1121.00 0.2318
1121.10 0.2317
1121.20 0.2317
1121.30 0.2316
1121.40 0.2316
1121.50 0.2315
1121.60 0.2315
1121.70 0.2314
1121.80 0.2314
1121.90 0.2313
1122.00 0.2313
1122.10 0.2312
1122.20 0.2312
1122.30 0.2311
1122.40 0.2311
1122.50 0.231
1122.60 0.231
1122.70 0.2309
1122.80 0.2309
1122.90 0.2308
1123.00 0.2308
1123.10 0.2307
1123.20 0.2306
1123.30 0.2306
1123.40 0.2305
1123.50 0.2305
1123.60 0.2304
1123.70 0.2304
1123.80 0.2303
1123.90 0.2303
1124.00 0.2302
1124.10 0.2302
1124.20 0.2301
1124.30 0.2301
1124.40 0.23
1124.50 0.23
1124.60 0.2299
1124.70 0.2299
1124.80 0.2298
1124.90 0.2298
1125.00 0.2297
1125.10 0.2297
1125.20 0.2296
1125.30 0.2296
1125.40 0.2295
1125.50 0.2295
1125.60 0.2294
1125.70 0.2294
1125.80 0.2293
1125.90 0.2293
1126.00 0.2292
1126.10 0.2292
1126.20 0.2291
1126.30 0.2291
1126.40 0.229
1126.50 0.229
1126.60 0.2289
1126.70 0.2289
1126.80 0.2288
1126.90 0.2288
1127.00 0.2287
1127.10 0.2287
1127.20 0.2286
1127.30 0.2286
1127.40 0.2285
1127.50 0.2285
1127.60 0.2284
1127.70 0.2284
1127.80 0.2283
1127.90 0.2283
1128.00 0.2282
1128.10 0.2282
1128.20 0.2281
1128.30 0.2281
1128.40 0.228
1128.50 0.228
1128.60 0.2279
1128.70 0.2279
1128.80 0.2278
1128.90 0.2278
1129.00 0.2277
1129.10 0.2277
1129.20 0.2276
1129.30 0.2276
1129.40 0.2275
1129.50 0.2275
1129.60 0.2274
1129.70 0.2274
1129.80 0.2273
1129.90 0.2273
1130.00 0.2272
1130.10 0.2272
1130.20 0.2271
1130.30 0.2271
1130.40 0.227
1130.50 0.227
1130.60 0.2269
1130.70 0.2268
1130.80 0.2268
1130.90 0.2267
1131.00 0.2267
1131.10 0.2266
1131.20 0.2266
1131.30 0.2265
1131.40 0.2265
1131.50 0.2264
1131.60 0.2264
1131.70 0.2263
1131.80 0.2263
1131.90 0.2262
1132.00 0.2262
1132.10 0.2261
1132.20 0.2261
1132.30 0.226
1132.40 0.226
1132.50 0.2259
1132.60 0.2259
1132.70 0.2258
1132.80 0.2258
1132.90 0.2257
1133.00 0.2257
1133.10 0.2257
1133.20 0.2256
1133.30 0.2256
1133.40 0.2255
1133.50 0.2255
1133.60 0.2254
1133.70 0.2254
1133.80 0.2253
1133.90 0.2253
1134.00 0.2252
1134.10 0.2252
1134.20 0.2251
1134.30 0.2251
1134.40 0.225
1134.50 0.225
1134.60 0.2249
1134.70 0.2249
1134.80 0.2248
1134.90 0.2248
1135.00 0.2247
1135.10 0.2247
1135.20 0.2246
1135.30 0.2246
1135.40 0.2245
1135.50 0.2245
1135.60 0.2244
1135.70 0.2244
1135.80 0.2243
1135.90 0.2243
1136.00 0.2242
1136.10 0.2242
1136.20 0.2241
1136.30 0.2241
1136.40 0.224
1136.50 0.224
1136.60 0.2239
1136.70 0.2239
1136.80 0.2238
1136.90 0.2238
1137.00 0.2237
1137.10 0.2237
1137.20 0.2236
1137.30 0.2236
1137.40 0.2235
1137.50 0.2235
1137.60 0.2234
1137.70 0.2234
1137.80 0.2233
1137.90 0.2233
1138.00 0.2232
1138.10 0.2232
1138.20 0.2231
1138.30 0.2231
1138.40 0.223
1138.50 0.223
1138.60 0.2229
1138.70 0.2229
1138.80 0.2228
1138.90 0.2228
1139.00 0.2227
1139.10 0.2227
1139.20 0.2226
1139.30 0.2226
1139.40 0.2225
1139.50 0.2225
1139.60 0.2224
1139.70 0.2224
1139.80 0.2223
1139.90 0.2223
1140.00 0.2223
1140.10 0.2222
1140.20 0.2222
1140.30 0.2221
1140.40 0.2221
1140.50 0.222
1140.60 0.222
1140.70 0.2219
1140.80 0.2219
1140.90 0.2218
1141.00 0.2218
1141.10 0.2217
1141.20 0.2217
1141.30 0.2216
1141.40 0.2216
1141.50 0.2215
1141.60 0.2215
1141.70 0.2214
1141.80 0.2214
1141.90 0.2213
1142.00 0.2213
1142.10 0.2212
1142.20 0.2212
1142.30 0.2211
1142.40 0.2211
1142.50 0.221
1142.60 0.221
1142.70 0.2209
1142.80 0.2209
1142.90 0.2208
1143.00 0.2208
1143.10 0.2207
1143.20 0.2207
1143.30 0.2206
1143.40 0.2206
1143.50 0.2205
1143.60 0.2205
1143.70 0.2205
1143.80 0.2204
1143.90 0.2204
1144.00 0.2203
1144.10 0.2203
1144.20 0.2202
1144.30 0.2202
1144.40 0.2201
1144.50 0.2201
1144.60 0.22
1144.70 0.22
1144.80 0.2199
1144.90 0.2199
1145.00 0.2198
1145.10 0.2198
1145.20 0.2197
1145.30 0.2197
1145.40 0.2196
1145.50 0.2196
1145.60 0.2195
1145.70 0.2195
1145.80 0.2194
1145.90 0.2194
1146.00 0.2194
1146.10 0.2193
1146.20 0.2193
1146.30 0.2192
1146.40 0.2192
1146.50 0.2191
1146.60 0.2191
1146.70 0.219
1146.80 0.219
1146.90 0.2189
1147.00 0.2189
1147.10 0.2188
1147.20 0.2188
1147.30 0.2187
1147.40 0.2187
1147.50 0.2186
1147.60 0.2186
1147.70 0.2185
1147.80 0.2185
1147.90 0.2184
1148.00 0.2184
1148.10 0.2183
1148.20 0.2183
1148.30 0.2182
1148.40 0.2182
1148.50 0.2182
1148.60 0.2181
1148.70 0.2181
1148.80 0.218
1148.90 0.218
1149.00 0.2179
1149.10 0.2179
1149.20 0.2178
1149.30 0.2178
1149.40 0.2177
1149.50 0.2177
1149.60 0.2176
1149.70 0.2176
1149.80 0.2175
1149.90 0.2175
1150.00 0.2174
1150.10 0.2174
1150.20 0.2173
1150.30 0.2173
1150.40 0.2172
1150.50 0.2172
1150.60 0.2172
1150.70 0.2171
1150.80 0.2171
1150.90 0.217
1151.00 0.217
1151.10 0.2169
1151.20 0.2169
1151.30 0.2168
1151.40 0.2168
1151.50 0.2167
1151.60 0.2167
1151.70 0.2166
1151.80 0.2166
1151.90 0.2165
1152.00 0.2165
1152.10 0.2164
1152.20 0.2164
1152.30 0.2163
1152.40 0.2163
1152.50 0.2163
1152.60 0.2162
1152.70 0.2162
1152.80 0.2161
1152.90 0.2161
1153.00 0.216
1153.10 0.216
1153.20 0.2159
1153.30 0.2159
1153.40 0.2158
1153.50 0.2158
1153.60 0.2157
1153.70 0.2157
1153.80 0.2156
1153.90 0.2156
1154.00 0.2155
1154.10 0.2155
1154.20 0.2155
1154.30 0.2154
1154.40 0.2154
1154.50 0.2153
1154.60 0.2153
1154.70 0.2152
1154.80 0.2152
1154.90 0.2151
1155.00 0.2151
1155.10 0.215
1155.20 0.215
1155.30 0.2149
1155.40 0.2149
1155.50 0.2148
1155.60 0.2148
1155.70 0.2148
1155.80 0.2147
1155.90 0.2147
1156.00 0.2146
1156.10 0.2146
1156.20 0.2145
1156.30 0.2145
1156.40 0.2144
1156.50 0.2144
1156.60 0.2143
1156.70 0.2143
1156.80 0.2142
1156.90 0.2142
1157.00 0.2142
1157.10 0.2141
1157.20 0.2141
1157.30 0.214
1157.40 0.214
1157.50 0.2139
1157.60 0.2139
1157.70 0.2138
1157.80 0.2138
1157.90 0.2137
1158.00 0.2137
1158.10 0.2136
1158.20 0.2136
1158.30 0.2135
1158.40 0.2135
1158.50 0.2135
1158.60 0.2134
1158.70 0.2134
1158.80 0.2133
1158.90 0.2133
1159.00 0.2132
1159.10 0.2132
1159.20 0.2131
1159.30 0.2131
1159.40 0.213
1159.50 0.213
1159.60 0.2129
1159.70 0.2129
1159.80 0.2128
1159.90 0.2128
1160.00 0.2128
1160.10 0.2127
1160.20 0.2127
1160.30 0.2126
1160.40 0.2126
1160.50 0.2125
1160.60 0.2125
1160.70 0.2124
1160.80 0.2124
1160.90 0.2123
1161.00 0.2123
1161.10 0.2122
1161.20 0.2122
1161.30 0.2122
1161.40 0.2121
1161.50 0.2121
1161.60 0.212
1161.70 0.212
1161.80 0.2119
1161.90 0.2119
1162.00 0.2118
1162.10 0.2118
1162.20 0.2117
1162.30 0.2117
1162.40 0.2116
1162.50 0.2116
1162.60 0.2116
1162.70 0.2115
1162.80 0.2115
1162.90 0.2114
1163.00 0.2114
1163.10 0.2113
1163.20 0.2113
1163.30 0.2112
1163.40 0.2112
1163.50 0.2111
1163.60 0.2111
1163.70 0.2111
1163.80 0.211
1163.90 0.211
1164.00 0.2109
1164.10 0.2109
1164.20 0.2108
1164.30 0.2108
1164.40 0.2107
1164.50 0.2107
1164.60 0.2106
1164.70 0.2106
1164.80 0.2106
1164.90 0.2105
1165.00 0.2105
1165.10 0.2104
1165.20 0.2104
1165.30 0.2103
1165.40 0.2103
1165.50 0.2102
1165.60 0.2102
1165.70 0.2101
1165.80 0.2101
1165.90 0.2101
1166.00 0.21
1166.10 0.21
1166.20 0.2099
1166.30 0.2099
1166.40 0.2098
1166.50 0.2098
1166.60 0.2097
1166.70 0.2097
1166.80 0.2096
1166.90 0.2096
1167.00 0.2096
1167.10 0.2095
1167.20 0.2095
1167.30 0.2094
1167.40 0.2094
1167.50 0.2093
1167.60 0.2093
1167.70 0.2092
1167.80 0.2092
1167.90 0.2091
1168.00 0.2091
1168.10 0.2091
1168.20 0.209
1168.30 0.209
1168.40 0.2089
1168.50 0.2089
1168.60 0.2088
1168.70 0.2088
1168.80 0.2087
1168.90 0.2087
1169.00 0.2087
1169.10 0.2086
1169.20 0.2086
1169.30 0.2085
1169.40 0.2085
1169.50 0.2084
1169.60 0.2084
1169.70 0.2083
1169.80 0.2083
1169.90 0.2082
1170.00 0.2082
1170.10 0.2082
1170.20 0.2081
1170.30 0.2081
1170.40 0.208
1170.50 0.208
1170.60 0.2079
1170.70 0.2079
1170.80 0.2078
1170.90 0.2078
1171.00 0.2077
1171.10 0.2077
1171.20 0.2077
1171.30 0.2076
1171.40 0.2076
1171.50 0.2075
1171.60 0.2075
1171.70 0.2074
1171.80 0.2074
1171.90 0.2073
1172.00 0.2073
1172.10 0.2073
1172.20 0.2072
1172.30 0.2072
1172.40 0.2071
1172.50 0.2071
1172.60 0.207
1172.70 0.207
1172.80 0.2069
1172.90 0.2069
1173.00 0.2069
1173.10 0.2068
1173.20 0.2068
1173.30 0.2067
1173.40 0.2067
1173.50 0.2066
1173.60 0.2066
1173.70 0.2065
1173.80 0.2065
1173.90 0.2065
1174.00 0.2064
1174.10 0.2064
1174.20 0.2063
1174.30 0.2063
1174.40 0.2062
1174.50 0.2062
1174.60 0.2061
1174.70 0.2061
1174.80 0.2061
1174.90 0.206
1175.00 0.206
1175.10 0.2059
1175.20 0.2059
1175.30 0.2058
1175.40 0.2058
1175.50 0.2058
1175.60 0.2057
1175.70 0.2057
1175.80 0.2056
1175.90 0.2056
1176.00 0.2055
1176.10 0.2055
1176.20 0.2054
1176.30 0.2054
1176.40 0.2054
1176.50 0.2053
1176.60 0.2053
1176.70 0.2052
1176.80 0.2052
1176.90 0.2051
1177.00 0.2051
1177.10 0.205
1177.20 0.205
1177.30 0.205
1177.40 0.2049
1177.50 0.2049
1177.60 0.2048
1177.70 0.2048
1177.80 0.2047
1177.90 0.2047
1178.00 0.2046
1178.10 0.2046
1178.20 0.2046
1178.30 0.2045
1178.40 0.2045
1178.50 0.2044
1178.60 0.2044
1178.70 0.2043
1178.80 0.2043
1178.90 0.2043
1179.00 0.2042
1179.10 0.2042
1179.20 0.2041
1179.30 0.2041
1179.40 0.204
1179.50 0.204
1179.60 0.2039
1179.70 0.2039
1179.80 0.2039
1179.90 0.2038
1180.00 0.2038
1180.10 0.2037
1180.20 0.2037
1180.30 0.2036
1180.40 0.2036
1180.50 0.2035
1180.60 0.2035
1180.70 0.2035
1180.80 0.2034
1180.90 0.2034
1181.00 0.2033
1181.10 0.2033
1181.20 0.2032
1181.30 0.2032
1181.40 0.2032
1181.50 0.2031
1181.60 0.2031
1181.70 0.203
1181.80 0.203
1181.90 0.2029
1182.00 0.2029
1182.10 0.2028
1182.20 0.2028
1182.30 0.2028
1182.40 0.2027
1182.50 0.2027
1182.60 0.2026
1182.70 0.2026
1182.80 0.2025
1182.90 0.2025
1183.00 0.2025
1183.10 0.2024
1183.20 0.2024
1183.30 0.2023
1183.40 0.2023
1183.50 0.2022
1183.60 0.2022
1183.70 0.2022
1183.80 0.2021
1183.90 0.2021
1184.00 0.202
1184.10 0.202
1184.20 0.2019
1184.30 0.2019
1184.40 0.2019
1184.50 0.2018
1184.60 0.2018
1184.70 0.2017
1184.80 0.2017
1184.90 0.2016
1185.00 0.2016
1185.10 0.2016
1185.20 0.2015
1185.30 0.2015
1185.40 0.2014
1185.50 0.2014
1185.60 0.2013
1185.70 0.2013
1185.80 0.2013
1185.90 0.2012
1186.00 0.2012
1186.10 0.2011
1186.20 0.2011
1186.30 0.201
1186.40 0.201
1186.50 0.201
1186.60 0.2009
1186.70 0.2009
1186.80 0.2008
1186.90 0.2008
1187.00 0.2007
1187.10 0.2007
1187.20 0.2007
1187.30 0.2006
1187.40 0.2006
1187.50 0.2005
1187.60 0.2005
1187.70 0.2004
1187.80 0.2004
1187.90 0.2004
1188.00 0.2003
1188.10 0.2003
1188.20 0.2002
1188.30 0.2002
1188.40 0.2001
1188.50 0.2001
1188.60 0.2001
1188.70 0.2
1188.80 0.2
1188.90 0.1999
1189.00 0.1999
1189.10 0.1998
1189.20 0.1998
1189.30 0.1998
1189.40 0.1997
1189.50 0.1997
1189.60 0.1996
1189.70 0.1996
1189.80 0.1995
1189.90 0.1995
1190.00 0.1995
1190.10 0.1994
1190.20 0.1994
1190.30 0.1993
1190.40 0.1993
1190.50 0.1992
1190.60 0.1992
1190.70 0.1992
1190.80 0.1991
1190.90 0.1991
1191.00 0.199
1191.10 0.199
1191.20 0.1989
1191.30 0.1989
1191.40 0.1989
1191.50 0.1988
1191.60 0.1988
1191.70 0.1987
1191.80 0.1987
1191.90 0.1986
1192.00 0.1986
1192.10 0.1986
1192.20 0.1985
1192.30 0.1985
1192.40 0.1984
1192.50 0.1984
1192.60 0.1984
1192.70 0.1983
1192.80 0.1983
1192.90 0.1982
1193.00 0.1982
1193.10 0.1981
1193.20 0.1981
1193.30 0.1981
1193.40 0.198
1193.50 0.198
1193.60 0.1979
1193.70 0.1979
1193.80 0.1978
1193.90 0.1978
1194.00 0.1978
1194.10 0.1977
1194.20 0.1977
1194.30 0.1976
1194.40 0.1976
1194.50 0.1976
1194.60 0.1975
1194.70 0.1975
1194.80 0.1974
1194.90 0.1974
1195.00 0.1973
1195.10 0.1973
1195.20 0.1973
1195.30 0.1972
1195.40 0.1972
1195.50 0.1971
1195.60 0.1971
1195.70 0.1971
1195.80 0.197
1195.90 0.197
1196.00 0.1969
1196.10 0.1969
1196.20 0.1968
1196.30 0.1968
1196.40 0.1968
1196.50 0.1967
1196.60 0.1967
1196.70 0.1966
1196.80 0.1966
1196.90 0.1966
1197.00 0.1965
1197.10 0.1965
1197.20 0.1964
1197.30 0.1964
1197.40 0.1963
1197.50 0.1963
1197.60 0.1963
1197.70 0.1962
1197.80 0.1962
1197.90 0.1961
1198.00 0.1961
1198.10 0.1961
1198.20 0.196
1198.30 0.196
1198.40 0.1959
1198.50 0.1959
1198.60 0.1958
1198.70 0.1958
1198.80 0.1958
1198.90 0.1957
1199.00 0.1957
1199.10 0.1956
1199.20 0.1956
1199.30 0.1956
1199.40 0.1955
1199.50 0.1955
1199.60 0.1954
1199.70 0.1954
1199.80 0.1954
1199.90 0.1953
1200.00 0
