# Version 2.1 - nm, norm@500 to 1, cut digits, bergeron_16500_95.dat_16500
# Wavelength(nm)  Flambda(ergs/cm^s/s/nm)
300.00 3.052
300.10 3.049
300.20 3.047
300.30 3.044
300.40 3.041
300.50 3.039
300.60 3.036
300.70 3.034
300.80 3.031
300.90 3.028
301.00 3.026
301.10 3.023
301.20 3.021
301.30 3.018
301.40 3.016
301.50 3.013
301.60 3.01
301.70 3.008
301.80 3.005
301.90 3.003
302.00 3
302.10 2.998
302.20 2.995
302.30 2.993
302.40 2.99
302.50 2.988
302.60 2.985
302.70 2.982
302.80 2.98
302.90 2.977
303.00 2.975
303.10 2.972
303.20 2.97
303.30 2.967
303.40 2.965
303.50 2.962
303.60 2.96
303.70 2.957
303.80 2.955
303.90 2.952
304.00 2.95
304.10 2.947
304.20 2.945
304.30 2.942
304.40 2.94
304.50 2.937
304.60 2.935
304.70 2.933
304.80 2.93
304.90 2.928
305.00 2.925
305.10 2.923
305.20 2.92
305.30 2.918
305.40 2.915
305.50 2.913
305.60 2.91
305.70 2.908
305.80 2.906
305.90 2.903
306.00 2.901
306.10 2.898
306.20 2.896
306.30 2.893
306.40 2.891
306.50 2.889
306.60 2.886
306.70 2.884
306.80 2.881
306.90 2.879
307.00 2.876
307.10 2.874
307.20 2.872
307.30 2.869
307.40 2.867
307.50 2.864
307.60 2.862
307.70 2.86
307.80 2.857
307.90 2.855
308.00 2.852
308.10 2.85
308.20 2.848
308.30 2.845
308.40 2.843
308.50 2.84
308.60 2.838
308.70 2.836
308.80 2.833
308.90 2.831
309.00 2.829
309.10 2.826
309.20 2.824
309.30 2.822
309.40 2.819
309.50 2.817
309.60 2.815
309.70 2.812
309.80 2.81
309.90 2.808
310.00 2.805
310.10 2.803
310.20 2.801
310.30 2.798
310.40 2.796
310.50 2.794
310.60 2.791
310.70 2.789
310.80 2.787
310.90 2.784
311.00 2.782
311.10 2.78
311.20 2.777
311.30 2.775
311.40 2.773
311.50 2.771
311.60 2.768
311.70 2.766
311.80 2.764
311.90 2.761
312.00 2.759
312.10 2.757
312.20 2.755
312.30 2.752
312.40 2.75
312.50 2.748
312.60 2.746
312.70 2.743
312.80 2.741
312.90 2.739
313.00 2.737
313.10 2.734
313.20 2.732
313.30 2.73
313.40 2.728
313.50 2.725
313.60 2.723
313.70 2.721
313.80 2.719
313.90 2.716
314.00 2.714
314.10 2.712
314.20 2.71
314.30 2.707
314.40 2.705
314.50 2.703
314.60 2.701
314.70 2.698
314.80 2.696
314.90 2.694
315.00 2.692
315.10 2.69
315.20 2.687
315.30 2.685
315.40 2.683
315.50 2.681
315.60 2.679
315.70 2.676
315.80 2.674
315.90 2.672
316.00 2.67
316.10 2.668
316.20 2.665
316.30 2.663
316.40 2.661
316.50 2.659
316.60 2.657
316.70 2.655
316.80 2.652
316.90 2.65
317.00 2.648
317.10 2.646
317.20 2.644
317.30 2.642
317.40 2.639
317.50 2.637
317.60 2.635
317.70 2.633
317.80 2.631
317.90 2.629
318.00 2.627
318.10 2.624
318.20 2.622
318.30 2.62
318.40 2.618
318.50 2.616
318.60 2.614
318.70 2.612
318.80 2.609
318.90 2.607
319.00 2.605
319.10 2.603
319.20 2.601
319.30 2.599
319.40 2.597
319.50 2.595
319.60 2.592
319.70 2.59
319.80 2.588
319.90 2.586
320.00 2.584
320.10 2.582
320.20 2.58
320.30 2.578
320.40 2.576
320.50 2.574
320.60 2.571
320.70 2.569
320.80 2.567
320.90 2.565
321.00 2.563
321.10 2.561
321.20 2.559
321.30 2.557
321.40 2.555
321.50 2.553
321.60 2.551
321.70 2.549
321.80 2.547
321.90 2.545
322.00 2.543
322.10 2.54
322.20 2.538
322.30 2.536
322.40 2.534
322.50 2.532
322.60 2.53
322.70 2.528
322.80 2.526
322.90 2.524
323.00 2.522
323.10 2.52
323.20 2.518
323.30 2.516
323.40 2.514
323.50 2.512
323.60 2.51
323.70 2.508
323.80 2.506
323.90 2.504
324.00 2.502
324.10 2.5
324.20 2.498
324.30 2.496
324.40 2.494
324.50 2.492
324.60 2.49
324.70 2.488
324.80 2.486
324.90 2.484
325.00 2.482
325.10 2.48
325.20 2.478
325.30 2.476
325.40 2.474
325.50 2.472
325.60 2.47
325.70 2.468
325.80 2.466
325.90 2.464
326.00 2.462
326.10 2.46
326.20 2.458
326.30 2.456
326.40 2.454
326.50 2.452
326.60 2.45
326.70 2.448
326.80 2.446
326.90 2.444
327.00 2.443
327.10 2.441
327.20 2.439
327.30 2.437
327.40 2.435
327.50 2.433
327.60 2.431
327.70 2.429
327.80 2.427
327.90 2.425
328.00 2.423
328.10 2.421
328.20 2.419
328.30 2.417
328.40 2.415
328.50 2.413
328.60 2.412
328.70 2.41
328.80 2.408
328.90 2.406
329.00 2.404
329.10 2.402
329.20 2.4
329.30 2.398
329.40 2.396
329.50 2.394
329.60 2.392
329.70 2.391
329.80 2.389
329.90 2.387
330.00 2.385
330.10 2.383
330.20 2.381
330.30 2.379
330.40 2.377
330.50 2.375
330.60 2.374
330.70 2.372
330.80 2.37
330.90 2.368
331.00 2.366
331.10 2.364
331.20 2.362
331.30 2.361
331.40 2.359
331.50 2.357
331.60 2.355
331.70 2.353
331.80 2.351
331.90 2.349
332.00 2.347
332.10 2.346
332.20 2.344
332.30 2.342
332.40 2.34
332.50 2.338
332.60 2.336
332.70 2.335
332.80 2.333
332.90 2.331
333.00 2.329
333.10 2.327
333.20 2.325
333.30 2.324
333.40 2.322
333.50 2.32
333.60 2.318
333.70 2.316
333.80 2.314
333.90 2.313
334.00 2.311
334.10 2.309
334.20 2.307
334.30 2.305
334.40 2.304
334.50 2.302
334.60 2.3
334.70 2.298
334.80 2.296
334.90 2.295
335.00 2.293
335.10 2.291
335.20 2.289
335.30 2.287
335.40 2.286
335.50 2.284
335.60 2.282
335.70 2.28
335.80 2.278
335.90 2.277
336.00 2.275
336.10 2.273
336.20 2.271
336.30 2.269
336.40 2.268
336.50 2.266
336.60 2.264
336.70 2.262
336.80 2.261
336.90 2.259
337.00 2.257
337.10 2.255
337.20 2.254
337.30 2.252
337.40 2.25
337.50 2.248
337.60 2.247
337.70 2.245
337.80 2.243
337.90 2.241
338.00 2.24
338.10 2.238
338.20 2.236
338.30 2.234
338.40 2.233
338.50 2.231
338.60 2.229
338.70 2.227
338.80 2.226
338.90 2.224
339.00 2.222
339.10 2.22
339.20 2.219
339.30 2.217
339.40 2.215
339.50 2.214
339.60 2.212
339.70 2.21
339.80 2.208
339.90 2.207
340.00 2.205
340.10 2.203
340.20 2.202
340.30 2.2
340.40 2.198
340.50 2.196
340.60 2.195
340.70 2.193
340.80 2.191
340.90 2.19
341.00 2.188
341.10 2.186
341.20 2.185
341.30 2.183
341.40 2.181
341.50 2.18
341.60 2.178
341.70 2.176
341.80 2.174
341.90 2.173
342.00 2.171
342.10 2.169
342.20 2.168
342.30 2.166
342.40 2.164
342.50 2.163
342.60 2.161
342.70 2.159
342.80 2.158
342.90 2.156
343.00 2.154
343.10 2.153
343.20 2.151
343.30 2.149
343.40 2.148
343.50 2.146
343.60 2.144
343.70 2.143
343.80 2.141
343.90 2.14
344.00 2.138
344.10 2.136
344.20 2.135
344.30 2.133
344.40 2.131
344.50 2.13
344.60 2.128
344.70 2.126
344.80 2.125
344.90 2.123
345.00 2.122
345.10 2.12
345.20 2.118
345.30 2.117
345.40 2.115
345.50 2.113
345.60 2.112
345.70 2.11
345.80 2.109
345.90 2.107
346.00 2.105
346.10 2.104
346.20 2.102
346.30 2.1
346.40 2.099
346.50 2.097
346.60 2.096
346.70 2.094
346.80 2.092
346.90 2.091
347.00 2.089
347.10 2.088
347.20 2.086
347.30 2.084
347.40 2.083
347.50 2.081
347.60 2.08
347.70 2.078
347.80 2.077
347.90 2.075
348.00 2.073
348.10 2.072
348.20 2.07
348.30 2.069
348.40 2.067
348.50 2.066
348.60 2.064
348.70 2.062
348.80 2.061
348.90 2.059
349.00 2.058
349.10 2.056
349.20 2.055
349.30 2.053
349.40 2.051
349.50 2.05
349.60 2.048
349.70 2.047
349.80 2.045
349.90 2.044
350.00 2.042
350.10 2.041
350.20 2.039
350.30 2.038
350.40 2.036
350.50 2.034
350.60 2.033
350.70 2.031
350.80 2.03
350.90 2.028
351.00 2.027
351.10 2.025
351.20 2.024
351.30 2.022
351.40 2.021
351.50 2.019
351.60 2.017
351.70 2.016
351.80 2.014
351.90 2.013
352.00 2.011
352.10 2.01
352.20 2.008
352.30 2.007
352.40 2.005
352.50 2.004
352.60 2.002
352.70 2.001
352.80 1.999
352.90 1.998
353.00 1.996
353.10 1.995
353.20 1.993
353.30 1.992
353.40 1.99
353.50 1.989
353.60 1.987
353.70 1.986
353.80 1.984
353.90 1.983
354.00 1.981
354.10 1.98
354.20 1.978
354.30 1.977
354.40 1.975
354.50 1.974
354.60 1.972
354.70 1.971
354.80 1.969
354.90 1.968
355.00 1.966
355.10 1.965
355.20 1.963
355.30 1.962
355.40 1.96
355.50 1.959
355.60 1.958
355.70 1.956
355.80 1.955
355.90 1.953
356.00 1.952
356.10 1.95
356.20 1.949
356.30 1.947
356.40 1.946
356.50 1.944
356.60 1.943
356.70 1.941
356.80 1.94
356.90 1.939
357.00 1.937
357.10 1.936
357.20 1.934
357.30 1.933
357.40 1.931
357.50 1.93
357.60 1.928
357.70 1.927
357.80 1.925
357.90 1.924
358.00 1.923
358.10 1.921
358.20 1.92
358.30 1.918
358.40 1.917
358.50 1.915
358.60 1.914
358.70 1.913
358.80 1.911
358.90 1.91
359.00 1.908
359.10 1.907
359.20 1.905
359.30 1.904
359.40 1.903
359.50 1.901
359.60 1.9
359.70 1.898
359.80 1.897
359.90 1.896
360.00 1.894
360.10 1.893
360.20 1.891
360.30 1.89
360.40 1.889
360.50 1.887
360.60 1.886
360.70 1.884
360.80 1.883
360.90 1.882
361.00 1.88
361.10 1.879
361.20 1.877
361.30 1.876
361.40 1.875
361.50 1.873
361.60 1.872
361.70 1.87
361.80 1.869
361.90 1.868
362.00 1.866
362.10 1.865
362.20 1.863
362.30 1.862
362.40 1.861
362.50 1.859
362.60 1.858
362.70 1.857
362.80 1.855
362.90 1.854
363.00 1.853
363.10 1.851
363.20 1.849
363.30 1.848
363.40 1.846
363.50 1.844
363.60 1.843
363.70 1.841
363.80 1.84
363.90 1.838
364.00 1.836
364.10 1.835
364.20 1.833
364.30 1.832
364.40 1.83
364.50 1.828
364.60 1.827
364.70 1.825
364.80 1.823
364.90 1.822
365.00 1.82
365.10 1.819
365.20 1.817
365.30 1.815
365.40 1.814
365.50 1.812
365.60 1.81
365.70 1.809
365.80 1.807
365.90 1.805
366.00 1.804
366.10 1.802
366.20 1.801
366.30 1.8
366.40 1.798
366.50 1.797
366.60 1.795
366.70 1.794
366.80 1.793
366.90 1.791
367.00 1.79
367.10 1.788
367.20 1.787
367.30 1.786
367.40 1.784
367.50 1.783
367.60 1.782
367.70 1.78
367.80 1.779
367.90 1.777
368.00 1.776
368.10 1.775
368.20 1.773
368.30 1.772
368.40 1.77
368.50 1.769
368.60 1.768
368.70 1.766
368.80 1.765
368.90 1.763
369.00 1.762
369.10 1.761
369.20 1.759
369.30 1.758
369.40 1.757
369.50 1.755
369.60 1.754
369.70 1.752
369.80 1.751
369.90 1.75
370.00 1.748
370.10 1.747
370.20 1.745
370.30 1.744
370.40 1.743
370.50 1.741
370.60 1.74
370.70 1.739
370.80 1.737
370.90 1.736
371.00 1.735
371.10 1.733
371.20 1.732
371.30 1.73
371.40 1.729
371.50 1.728
371.60 1.726
371.70 1.725
371.80 1.724
371.90 1.722
372.00 1.721
372.10 1.72
372.20 1.718
372.30 1.717
372.40 1.716
372.50 1.715
372.60 1.713
372.70 1.712
372.80 1.711
372.90 1.709
373.00 1.708
373.10 1.707
373.20 1.706
373.30 1.704
373.40 1.703
373.50 1.702
373.60 1.7
373.70 1.699
373.80 1.698
373.90 1.697
374.00 1.695
374.10 1.694
374.20 1.693
374.30 1.692
374.40 1.69
374.50 1.689
374.60 1.688
374.70 1.687
374.80 1.686
374.90 1.684
375.00 1.683
375.10 1.682
375.20 1.681
375.30 1.68
375.40 1.678
375.50 1.677
375.60 1.676
375.70 1.675
375.80 1.673
375.90 1.672
376.00 1.671
376.10 1.67
376.20 1.669
376.30 1.668
376.40 1.667
376.50 1.665
376.60 1.664
376.70 1.663
376.80 1.662
376.90 1.661
377.00 1.66
377.10 1.659
377.20 1.658
377.30 1.656
377.40 1.655
377.50 1.654
377.60 1.653
377.70 1.652
377.80 1.651
377.90 1.649
378.00 1.648
378.10 1.647
378.20 1.646
378.30 1.644
378.40 1.643
378.50 1.641
378.60 1.64
378.70 1.639
378.80 1.637
378.90 1.636
379.00 1.635
379.10 1.633
379.20 1.632
379.30 1.631
379.40 1.63
379.50 1.629
379.60 1.628
379.70 1.627
379.80 1.625
379.90 1.624
380.00 1.623
380.10 1.623
380.20 1.622
380.30 1.622
380.40 1.621
380.50 1.621
380.60 1.62
380.70 1.619
380.80 1.619
380.90 1.618
381.00 1.618
381.10 1.617
381.20 1.616
381.30 1.616
381.40 1.615
381.50 1.614
381.60 1.613
381.70 1.612
381.80 1.611
381.90 1.61
382.00 1.609
382.10 1.608
382.20 1.606
382.30 1.605
382.40 1.603
382.50 1.601
382.60 1.599
382.70 1.598
382.80 1.596
382.90 1.594
383.00 1.592
383.10 1.591
383.20 1.589
383.30 1.588
383.40 1.586
383.50 1.585
383.60 1.585
383.70 1.585
383.80 1.585
383.90 1.585
384.00 1.586
384.10 1.586
384.20 1.587
384.30 1.588
384.40 1.589
384.50 1.589
384.60 1.59
384.70 1.59
384.80 1.59
384.90 1.591
385.00 1.591
385.10 1.59
385.20 1.59
385.30 1.59
385.40 1.589
385.50 1.589
385.60 1.588
385.70 1.587
385.80 1.586
385.90 1.586
386.00 1.584
386.10 1.583
386.20 1.582
386.30 1.581
386.40 1.579
386.50 1.578
386.60 1.576
386.70 1.575
386.80 1.573
386.90 1.571
387.00 1.569
387.10 1.567
387.20 1.565
387.30 1.563
387.40 1.561
387.50 1.558
387.60 1.556
387.70 1.553
387.80 1.55
387.90 1.547
388.00 1.544
388.10 1.541
388.20 1.537
388.30 1.534
388.40 1.53
388.50 1.526
388.60 1.523
388.70 1.521
388.80 1.519
388.90 1.518
389.00 1.518
389.10 1.519
389.20 1.521
389.30 1.523
389.40 1.526
389.50 1.529
389.60 1.533
389.70 1.536
389.80 1.538
389.90 1.541
390.00 1.543
390.10 1.545
390.20 1.547
390.30 1.549
390.40 1.551
390.50 1.552
390.60 1.554
390.70 1.555
390.80 1.556
390.90 1.557
391.00 1.558
391.10 1.559
391.20 1.56
391.30 1.56
391.40 1.561
391.50 1.561
391.60 1.561
391.70 1.561
391.80 1.561
391.90 1.561
392.00 1.561
392.10 1.56
392.20 1.56
392.30 1.559
392.40 1.558
392.50 1.557
392.60 1.556
392.70 1.554
392.80 1.553
392.90 1.551
393.00 1.549
393.10 1.547
393.20 1.545
393.30 1.542
393.40 1.54
393.50 1.537
393.60 1.534
393.70 1.531
393.80 1.528
393.90 1.524
394.00 1.52
394.10 1.516
394.20 1.512
394.30 1.508
394.40 1.504
394.50 1.499
394.60 1.494
394.70 1.489
394.80 1.484
394.90 1.479
395.00 1.474
395.10 1.469
395.20 1.463
395.30 1.457
395.40 1.451
395.50 1.445
395.60 1.438
395.70 1.431
395.80 1.424
395.90 1.417
396.00 1.41
396.10 1.404
396.20 1.396
396.30 1.388
396.40 1.379
396.50 1.369
396.60 1.359
396.70 1.348
396.80 1.34
396.90 1.333
397.00 1.327
397.10 1.332
397.20 1.338
397.30 1.345
397.40 1.355
397.50 1.365
397.60 1.375
397.70 1.383
397.80 1.391
397.90 1.398
398.00 1.404
398.10 1.41
398.20 1.417
398.30 1.423
398.40 1.43
398.50 1.437
398.60 1.443
398.70 1.448
398.80 1.454
398.90 1.459
399.00 1.464
399.10 1.469
399.20 1.474
399.30 1.478
399.40 1.483
399.50 1.488
399.60 1.492
399.70 1.496
399.80 1.5
399.90 1.504
400.00 1.508
400.10 1.512
400.20 1.515
400.30 1.518
400.40 1.521
400.50 1.524
400.60 1.527
400.70 1.529
400.80 1.532
400.90 1.534
401.00 1.536
401.10 1.538
401.20 1.54
401.30 1.541
401.40 1.542
401.50 1.544
401.60 1.545
401.70 1.546
401.80 1.547
401.90 1.547
402.00 1.548
402.10 1.548
402.20 1.548
402.30 1.548
402.40 1.548
402.50 1.548
402.60 1.548
402.70 1.547
402.80 1.546
402.90 1.545
403.00 1.544
403.10 1.543
403.20 1.542
403.30 1.54
403.40 1.539
403.50 1.537
403.60 1.535
403.70 1.533
403.80 1.53
403.90 1.528
404.00 1.525
404.10 1.522
404.20 1.519
404.30 1.516
404.40 1.513
404.50 1.51
404.60 1.506
404.70 1.502
404.80 1.498
404.90 1.494
405.00 1.49
405.10 1.485
405.20 1.481
405.30 1.476
405.40 1.471
405.50 1.466
405.60 1.46
405.70 1.455
405.80 1.449
405.90 1.443
406.00 1.437
406.10 1.431
406.20 1.424
406.30 1.418
406.40 1.411
406.50 1.404
406.60 1.397
406.70 1.389
406.80 1.382
406.90 1.374
407.00 1.366
407.10 1.357
407.20 1.349
407.30 1.34
407.40 1.331
407.50 1.322
407.60 1.312
407.70 1.303
407.80 1.293
407.90 1.283
408.00 1.273
408.10 1.262
408.20 1.252
408.30 1.241
408.40 1.23
408.50 1.219
408.60 1.208
408.70 1.196
408.80 1.183
408.90 1.171
409.00 1.158
409.10 1.146
409.20 1.134
409.30 1.123
409.40 1.111
409.50 1.098
409.60 1.085
409.70 1.071
409.80 1.058
409.90 1.044
410.00 1.034
410.10 1.028
410.20 1.026
410.30 1.029
410.40 1.037
410.50 1.048
410.60 1.061
410.70 1.074
410.80 1.086
410.90 1.098
411.00 1.109
411.10 1.12
411.20 1.131
411.30 1.142
411.40 1.153
411.50 1.164
411.60 1.176
411.70 1.187
411.80 1.197
411.90 1.207
412.00 1.217
412.10 1.227
412.20 1.237
412.30 1.246
412.40 1.255
412.50 1.264
412.60 1.273
412.70 1.282
412.80 1.29
412.90 1.299
413.00 1.307
413.10 1.315
413.20 1.323
413.30 1.331
413.40 1.338
413.50 1.345
413.60 1.352
413.70 1.359
413.80 1.366
413.90 1.372
414.00 1.379
414.10 1.385
414.20 1.391
414.30 1.397
414.40 1.403
414.50 1.408
414.60 1.414
414.70 1.419
414.80 1.424
414.90 1.43
415.00 1.435
415.10 1.439
415.20 1.444
415.30 1.449
415.40 1.453
415.50 1.458
415.60 1.462
415.70 1.466
415.80 1.47
415.90 1.474
416.00 1.478
416.10 1.482
416.20 1.485
416.30 1.489
416.40 1.492
416.50 1.495
416.60 1.499
416.70 1.502
416.80 1.505
416.90 1.508
417.00 1.51
417.10 1.513
417.20 1.516
417.30 1.518
417.40 1.521
417.50 1.523
417.60 1.525
417.70 1.528
417.80 1.53
417.90 1.532
418.00 1.533
418.10 1.535
418.20 1.537
418.30 1.539
418.40 1.54
418.50 1.542
418.60 1.543
418.70 1.544
418.80 1.546
418.90 1.547
419.00 1.548
419.10 1.549
419.20 1.55
419.30 1.551
419.40 1.551
419.50 1.552
419.60 1.553
419.70 1.553
419.80 1.554
419.90 1.554
420.00 1.554
420.10 1.555
420.20 1.555
420.30 1.555
420.40 1.555
420.50 1.555
420.60 1.555
420.70 1.554
420.80 1.554
420.90 1.554
421.00 1.553
421.10 1.553
421.20 1.552
421.30 1.552
421.40 1.551
421.50 1.55
421.60 1.549
421.70 1.548
421.80 1.547
421.90 1.546
422.00 1.545
422.10 1.544
422.20 1.542
422.30 1.541
422.40 1.539
422.50 1.538
422.60 1.536
422.70 1.534
422.80 1.533
422.90 1.531
423.00 1.529
423.10 1.527
423.20 1.525
423.30 1.523
423.40 1.52
423.50 1.518
423.60 1.516
423.70 1.513
423.80 1.511
423.90 1.508
424.00 1.506
424.10 1.503
424.20 1.5
424.30 1.497
424.40 1.494
424.50 1.491
424.60 1.488
424.70 1.485
424.80 1.482
424.90 1.478
425.00 1.475
425.10 1.471
425.20 1.468
425.30 1.464
425.40 1.46
425.50 1.457
425.60 1.453
425.70 1.449
425.80 1.445
425.90 1.441
426.00 1.436
426.10 1.432
426.20 1.427
426.30 1.422
426.40 1.417
426.50 1.413
426.60 1.408
426.70 1.403
426.80 1.399
426.90 1.394
427.00 1.389
427.10 1.384
427.20 1.378
427.30 1.373
427.40 1.368
427.50 1.362
427.60 1.357
427.70 1.351
427.80 1.346
427.90 1.34
428.00 1.334
428.10 1.328
428.20 1.322
428.30 1.316
428.40 1.309
428.50 1.303
428.60 1.297
428.70 1.29
428.80 1.284
428.90 1.277
429.00 1.27
429.10 1.263
429.20 1.256
429.30 1.249
429.40 1.242
429.50 1.234
429.60 1.227
429.70 1.219
429.80 1.212
429.90 1.204
430.00 1.196
430.10 1.188
430.20 1.18
430.30 1.171
430.40 1.163
430.50 1.154
430.60 1.146
430.70 1.137
430.80 1.128
430.90 1.118
431.00 1.109
431.10 1.099
431.20 1.09
431.30 1.08
431.40 1.07
431.50 1.06
431.60 1.049
431.70 1.038
431.80 1.028
431.90 1.017
432.00 1.006
432.10 0.9945
432.20 0.9829
432.30 0.9711
432.40 0.9592
432.50 0.9467
432.60 0.934
432.70 0.9211
432.80 0.9079
432.90 0.8946
433.00 0.8814
433.10 0.8683
433.20 0.8552
433.30 0.8421
433.40 0.8287
433.50 0.8148
433.60 0.8005
433.70 0.7821
433.80 0.7586
433.90 0.73
434.00 0.7011
434.10 0.7016
434.20 0.7316
434.30 0.7589
434.40 0.7812
434.50 0.7984
434.60 0.8117
434.70 0.8246
434.80 0.8371
434.90 0.8492
435.00 0.8614
435.10 0.8735
435.20 0.8857
435.30 0.8979
435.40 0.91
435.50 0.9217
435.60 0.9332
435.70 0.9445
435.80 0.9552
435.90 0.9657
436.00 0.976
436.10 0.986
436.20 0.9957
436.30 1.005
436.40 1.015
436.50 1.024
436.60 1.033
436.70 1.042
436.80 1.05
436.90 1.059
437.00 1.067
437.10 1.075
437.20 1.083
437.30 1.091
437.40 1.098
437.50 1.106
437.60 1.113
437.70 1.12
437.80 1.127
437.90 1.134
438.00 1.14
438.10 1.147
438.20 1.153
438.30 1.159
438.40 1.165
438.50 1.171
438.60 1.177
438.70 1.183
438.80 1.189
438.90 1.194
439.00 1.2
439.10 1.205
439.20 1.21
439.30 1.215
439.40 1.22
439.50 1.225
439.60 1.23
439.70 1.235
439.80 1.239
439.90 1.244
440.00 1.248
440.10 1.253
440.20 1.257
440.30 1.261
440.40 1.266
440.50 1.27
440.60 1.274
440.70 1.278
440.80 1.281
440.90 1.285
441.00 1.289
441.10 1.293
441.20 1.296
441.30 1.3
441.40 1.303
441.50 1.306
441.60 1.309
441.70 1.313
441.80 1.316
441.90 1.319
442.00 1.322
442.10 1.325
442.20 1.328
442.30 1.331
442.40 1.333
442.50 1.336
442.60 1.339
442.70 1.341
442.80 1.344
442.90 1.346
443.00 1.349
443.10 1.351
443.20 1.354
443.30 1.356
443.40 1.358
443.50 1.36
443.60 1.362
443.70 1.365
443.80 1.367
443.90 1.369
444.00 1.37
444.10 1.372
444.20 1.374
444.30 1.376
444.40 1.378
444.50 1.38
444.60 1.381
444.70 1.383
444.80 1.384
444.90 1.386
445.00 1.387
445.10 1.389
445.20 1.39
445.30 1.392
445.40 1.393
445.50 1.394
445.60 1.396
445.70 1.397
445.80 1.398
445.90 1.399
446.00 1.4
446.10 1.402
446.20 1.403
446.30 1.404
446.40 1.405
446.50 1.406
446.60 1.406
446.70 1.407
446.80 1.408
446.90 1.409
447.00 1.41
447.10 1.411
447.20 1.411
447.30 1.412
447.40 1.413
447.50 1.413
447.60 1.414
447.70 1.415
447.80 1.415
447.90 1.416
448.00 1.416
448.10 1.417
448.20 1.417
448.30 1.418
448.40 1.418
448.50 1.419
448.60 1.419
448.70 1.419
448.80 1.42
448.90 1.42
449.00 1.421
449.10 1.421
449.20 1.421
449.30 1.421
449.40 1.422
449.50 1.422
449.60 1.422
449.70 1.422
449.80 1.422
449.90 1.422
450.00 1.422
450.10 1.422
450.20 1.422
450.30 1.422
450.40 1.423
450.50 1.423
450.60 1.422
450.70 1.422
450.80 1.422
450.90 1.422
451.00 1.422
451.10 1.422
451.20 1.422
451.30 1.422
451.40 1.422
451.50 1.421
451.60 1.421
451.70 1.421
451.80 1.421
451.90 1.421
452.00 1.42
452.10 1.42
452.20 1.42
452.30 1.419
452.40 1.419
452.50 1.419
452.60 1.418
452.70 1.418
452.80 1.418
452.90 1.417
453.00 1.417
453.10 1.416
453.20 1.416
453.30 1.416
453.40 1.415
453.50 1.415
453.60 1.414
453.70 1.414
453.80 1.413
453.90 1.413
454.00 1.412
454.10 1.412
454.20 1.411
454.30 1.411
454.40 1.41
454.50 1.41
454.60 1.409
454.70 1.408
454.80 1.408
454.90 1.407
455.00 1.406
455.10 1.406
455.20 1.405
455.30 1.405
455.40 1.404
455.50 1.403
455.60 1.403
455.70 1.402
455.80 1.401
455.90 1.4
456.00 1.4
456.10 1.399
456.20 1.398
456.30 1.398
456.40 1.397
456.50 1.396
456.60 1.395
456.70 1.395
456.80 1.394
456.90 1.393
457.00 1.393
457.10 1.392
457.20 1.391
457.30 1.391
457.40 1.39
457.50 1.389
457.60 1.388
457.70 1.387
457.80 1.386
457.90 1.385
458.00 1.385
458.10 1.384
458.20 1.383
458.30 1.382
458.40 1.381
458.50 1.38
458.60 1.379
458.70 1.378
458.80 1.377
458.90 1.376
459.00 1.375
459.10 1.374
459.20 1.373
459.30 1.372
459.40 1.371
459.50 1.37
459.60 1.369
459.70 1.368
459.80 1.367
459.90 1.366
460.00 1.365
460.10 1.364
460.20 1.363
460.30 1.362
460.40 1.361
460.50 1.36
460.60 1.359
460.70 1.358
460.80 1.357
460.90 1.356
461.00 1.355
461.10 1.353
461.20 1.352
461.30 1.351
461.40 1.35
461.50 1.349
461.60 1.348
461.70 1.347
461.80 1.346
461.90 1.344
462.00 1.343
462.10 1.342
462.20 1.341
462.30 1.34
462.40 1.338
462.50 1.337
462.60 1.336
462.70 1.335
462.80 1.334
462.90 1.332
463.00 1.331
463.10 1.33
463.20 1.329
463.30 1.327
463.40 1.326
463.50 1.325
463.60 1.323
463.70 1.322
463.80 1.321
463.90 1.32
464.00 1.318
464.10 1.317
464.20 1.316
464.30 1.314
464.40 1.313
464.50 1.311
464.60 1.31
464.70 1.309
464.80 1.307
464.90 1.306
465.00 1.305
465.10 1.303
465.20 1.302
465.30 1.3
465.40 1.299
465.50 1.297
465.60 1.296
465.70 1.295
465.80 1.293
465.90 1.292
466.00 1.29
466.10 1.289
466.20 1.287
466.30 1.286
466.40 1.284
466.50 1.283
466.60 1.281
466.70 1.279
466.80 1.278
466.90 1.276
467.00 1.275
467.10 1.273
467.20 1.272
467.30 1.27
467.40 1.268
467.50 1.267
467.60 1.265
467.70 1.263
467.80 1.262
467.90 1.26
468.00 1.258
468.10 1.257
468.20 1.255
468.30 1.253
468.40 1.252
468.50 1.25
468.60 1.248
468.70 1.246
468.80 1.245
468.90 1.243
469.00 1.241
469.10 1.239
469.20 1.237
469.30 1.236
469.40 1.234
469.50 1.232
469.60 1.23
469.70 1.228
469.80 1.226
469.90 1.224
470.00 1.223
470.10 1.221
470.20 1.219
470.30 1.217
470.40 1.215
470.50 1.213
470.60 1.211
470.70 1.209
470.80 1.207
470.90 1.205
471.00 1.204
471.10 1.202
471.20 1.2
471.30 1.197
471.40 1.195
471.50 1.193
471.60 1.191
471.70 1.189
471.80 1.187
471.90 1.185
472.00 1.183
472.10 1.18
472.20 1.178
472.30 1.176
472.40 1.174
472.50 1.171
472.60 1.169
472.70 1.167
472.80 1.165
472.90 1.162
473.00 1.16
473.10 1.158
473.20 1.155
473.30 1.153
473.40 1.15
473.50 1.148
473.60 1.146
473.70 1.143
473.80 1.141
473.90 1.138
474.00 1.136
474.10 1.133
474.20 1.131
474.30 1.128
474.40 1.125
474.50 1.123
474.60 1.12
474.70 1.117
474.80 1.115
474.90 1.112
475.00 1.109
475.10 1.107
475.20 1.104
475.30 1.101
475.40 1.098
475.50 1.095
475.60 1.093
475.70 1.09
475.80 1.087
475.90 1.084
476.00 1.081
476.10 1.078
476.20 1.075
476.30 1.072
476.40 1.069
476.50 1.066
476.60 1.063
476.70 1.06
476.80 1.057
476.90 1.054
477.00 1.051
477.10 1.048
477.20 1.044
477.30 1.041
477.40 1.038
477.50 1.034
477.60 1.031
477.70 1.027
477.80 1.024
477.90 1.021
478.00 1.017
478.10 1.014
478.20 1.01
478.30 1.007
478.40 1.003
478.50 0.9993
478.60 0.9957
478.70 0.992
478.80 0.9883
478.90 0.9846
479.00 0.981
479.10 0.9773
479.20 0.9734
479.30 0.9694
479.40 0.9654
479.50 0.9614
479.60 0.9573
479.70 0.9533
479.80 0.9493
479.90 0.9453
480.00 0.9413
480.10 0.9373
480.20 0.933
480.30 0.9286
480.40 0.9242
480.50 0.9198
480.60 0.9154
480.70 0.911
480.80 0.9065
480.90 0.9021
481.00 0.8977
481.10 0.8933
481.20 0.8886
481.30 0.8836
481.40 0.8787
481.50 0.8737
481.60 0.8688
481.70 0.8639
481.80 0.8589
481.90 0.854
482.00 0.8491
482.10 0.8442
482.20 0.8387
482.30 0.8331
482.40 0.8274
482.50 0.8217
482.60 0.816
482.70 0.8104
482.80 0.8047
482.90 0.7991
483.00 0.7934
483.10 0.7878
483.20 0.7813
483.30 0.7744
483.40 0.7676
483.50 0.7607
483.60 0.7539
483.70 0.747
483.80 0.7402
483.90 0.7333
484.00 0.7265
484.10 0.7197
484.20 0.7119
484.30 0.7036
484.40 0.6953
484.50 0.687
484.60 0.6787
484.70 0.6694
484.80 0.6597
484.90 0.65
485.00 0.6403
485.10 0.6306
485.20 0.6203
485.30 0.6098
485.40 0.5988
485.50 0.5876
485.60 0.5755
485.70 0.5631
485.80 0.5473
485.90 0.53
486.00 0.5047
486.10 0.4738
486.20 0.4795
486.30 0.5146
486.40 0.5344
486.50 0.5514
486.60 0.5649
486.70 0.5768
486.80 0.5878
486.90 0.5984
487.00 0.6084
487.10 0.6183
487.20 0.6275
487.30 0.6365
487.40 0.6454
487.50 0.6544
487.60 0.6633
487.70 0.6713
487.80 0.6787
487.90 0.6862
488.00 0.6936
488.10 0.7011
488.20 0.7075
488.30 0.7134
488.40 0.7193
488.50 0.7252
488.60 0.7311
488.70 0.737
488.80 0.7429
488.90 0.7488
489.00 0.7546
489.10 0.7605
489.20 0.7655
489.30 0.7701
489.40 0.7747
489.50 0.7793
489.60 0.7839
489.70 0.7885
489.80 0.7931
489.90 0.7977
490.00 0.8022
490.10 0.8068
490.20 0.8109
490.30 0.8146
490.40 0.8184
490.50 0.8222
490.60 0.826
490.70 0.8298
490.80 0.8335
490.90 0.8373
491.00 0.8411
491.10 0.8448
491.20 0.8482
491.30 0.8514
491.40 0.8545
491.50 0.8577
491.60 0.8608
491.70 0.864
491.80 0.8671
491.90 0.8702
492.00 0.8734
492.10 0.8765
492.20 0.8793
492.30 0.882
492.40 0.8847
492.50 0.8874
492.60 0.89
492.70 0.8927
492.80 0.8954
492.90 0.8981
493.00 0.9007
493.10 0.9034
493.20 0.9058
493.30 0.9081
493.40 0.9104
493.50 0.9127
493.60 0.915
493.70 0.9173
493.80 0.9196
493.90 0.9218
494.00 0.9241
494.10 0.9264
494.20 0.9284
494.30 0.9304
494.40 0.9323
494.50 0.9342
494.60 0.9361
494.70 0.938
494.80 0.9399
494.90 0.9418
495.00 0.9437
495.10 0.9456
495.20 0.9473
495.30 0.9489
495.40 0.9505
495.50 0.9521
495.60 0.9536
495.70 0.9552
495.80 0.9568
495.90 0.9584
496.00 0.96
496.10 0.9615
496.20 0.9629
496.30 0.9642
496.40 0.9656
496.50 0.9669
496.60 0.9682
496.70 0.9695
496.80 0.9708
496.90 0.9721
497.00 0.9734
497.10 0.9747
497.20 0.9759
497.30 0.9769
497.40 0.978
497.50 0.9791
497.60 0.9801
497.70 0.9812
497.80 0.9823
497.90 0.9833
498.00 0.9844
498.10 0.9854
498.20 0.9864
498.30 0.9872
498.40 0.9881
498.50 0.9889
498.60 0.9898
498.70 0.9906
498.80 0.9915
498.90 0.9923
499.00 0.9932
499.10 0.994
499.20 0.9947
499.30 0.9954
499.40 0.9961
499.50 0.9967
499.60 0.9974
499.70 0.998
499.80 0.9987
499.90 0.9993
500.00 1
500.10 1.001
500.20 1.001
500.30 1.002
500.40 1.002
500.50 1.003
500.60 1.003
500.70 1.004
500.80 1.004
500.90 1.005
501.00 1.005
501.10 1.006
501.20 1.006
501.30 1.006
501.40 1.007
501.50 1.007
501.60 1.007
501.70 1.008
501.80 1.008
501.90 1.009
502.00 1.009
502.10 1.009
502.20 1.01
502.30 1.01
502.40 1.01
502.50 1.01
502.60 1.011
502.70 1.011
502.80 1.011
502.90 1.011
503.00 1.011
503.10 1.012
503.20 1.012
503.30 1.012
503.40 1.012
503.50 1.012
503.60 1.012
503.70 1.013
503.80 1.013
503.90 1.013
504.00 1.013
504.10 1.013
504.20 1.013
504.30 1.013
504.40 1.013
504.50 1.013
504.60 1.013
504.70 1.013
504.80 1.013
504.90 1.013
505.00 1.013
505.10 1.013
505.20 1.013
505.30 1.013
505.40 1.013
505.50 1.013
505.60 1.013
505.70 1.013
505.80 1.013
505.90 1.013
506.00 1.013
506.10 1.013
506.20 1.013
506.30 1.013
506.40 1.013
506.50 1.012
506.60 1.012
506.70 1.012
506.80 1.012
506.90 1.012
507.00 1.012
507.10 1.012
507.20 1.012
507.30 1.011
507.40 1.011
507.50 1.011
507.60 1.011
507.70 1.011
507.80 1.01
507.90 1.01
508.00 1.01
508.10 1.01
508.20 1.01
508.30 1.009
508.40 1.009
508.50 1.009
508.60 1.009
508.70 1.008
508.80 1.008
508.90 1.008
509.00 1.008
509.10 1.007
509.20 1.007
509.30 1.007
509.40 1.007
509.50 1.006
509.60 1.006
509.70 1.006
509.80 1.005
509.90 1.005
510.00 1.005
510.10 1.005
510.20 1.004
510.30 1.004
510.40 1.004
510.50 1.003
510.60 1.003
510.70 1.003
510.80 1.002
510.90 1.002
511.00 1.002
511.10 1.001
511.20 1.001
511.30 1.001
511.40 1
511.50 0.9999
511.60 0.9995
511.70 0.9992
511.80 0.9988
511.90 0.9984
512.00 0.9981
512.10 0.9977
512.20 0.9973
512.30 0.9969
512.40 0.9965
512.50 0.9961
512.60 0.9957
512.70 0.9953
512.80 0.9949
512.90 0.9945
513.00 0.9942
513.10 0.9938
513.20 0.9934
513.30 0.9929
513.40 0.9925
513.50 0.9921
513.60 0.9917
513.70 0.9913
513.80 0.9909
513.90 0.9904
514.00 0.99
514.10 0.9896
514.20 0.9892
514.30 0.9888
514.40 0.9883
514.50 0.9879
514.60 0.9875
514.70 0.987
514.80 0.9866
514.90 0.9862
515.00 0.9857
515.10 0.9853
515.20 0.9849
515.30 0.9844
515.40 0.984
515.50 0.9835
515.60 0.983
515.70 0.9826
515.80 0.9821
515.90 0.9817
516.00 0.9812
516.10 0.9808
516.20 0.9803
516.30 0.9799
516.40 0.9794
516.50 0.9789
516.60 0.9785
516.70 0.978
516.80 0.9775
516.90 0.977
517.00 0.9766
517.10 0.9761
517.20 0.9756
517.30 0.9752
517.40 0.9747
517.50 0.9742
517.60 0.9737
517.70 0.9732
517.80 0.9727
517.90 0.9723
518.00 0.9718
518.10 0.9713
518.20 0.9708
518.30 0.9703
518.40 0.9699
518.50 0.9694
518.60 0.9689
518.70 0.9684
518.80 0.9679
518.90 0.9674
519.00 0.967
519.10 0.9665
519.20 0.966
519.30 0.9655
519.40 0.965
519.50 0.9645
519.60 0.964
519.70 0.9635
519.80 0.963
519.90 0.9625
520.00 0.962
520.10 0.9615
520.20 0.961
520.30 0.9604
520.40 0.9599
520.50 0.9594
520.60 0.9589
520.70 0.9584
520.80 0.9579
520.90 0.9574
521.00 0.9569
521.10 0.9564
521.20 0.9559
521.30 0.9554
521.40 0.9549
521.50 0.9544
521.60 0.9539
521.70 0.9533
521.80 0.9528
521.90 0.9523
522.00 0.9518
522.10 0.9513
522.20 0.9508
522.30 0.9503
522.40 0.9498
522.50 0.9492
522.60 0.9487
522.70 0.9482
522.80 0.9477
522.90 0.9472
523.00 0.9466
523.10 0.9461
523.20 0.9456
523.30 0.9451
523.40 0.9446
523.50 0.944
523.60 0.9435
523.70 0.943
523.80 0.9425
523.90 0.9419
524.00 0.9414
524.10 0.9409
524.20 0.9404
524.30 0.9398
524.40 0.9393
524.50 0.9388
524.60 0.9383
524.70 0.9377
524.80 0.9372
524.90 0.9367
525.00 0.9362
525.10 0.9356
525.20 0.9351
525.30 0.9346
525.40 0.934
525.50 0.9335
525.60 0.933
525.70 0.9325
525.80 0.9319
525.90 0.9314
526.00 0.9309
526.10 0.9303
526.20 0.9298
526.30 0.9293
526.40 0.9288
526.50 0.9282
526.60 0.9277
526.70 0.9272
526.80 0.9266
526.90 0.9261
527.00 0.9256
527.10 0.9251
527.20 0.9245
527.30 0.924
527.40 0.9235
527.50 0.9229
527.60 0.9224
527.70 0.9219
527.80 0.9213
527.90 0.9208
528.00 0.9202
528.10 0.9197
528.20 0.9192
528.30 0.9186
528.40 0.9181
528.50 0.9176
528.60 0.917
528.70 0.9165
528.80 0.916
528.90 0.9154
529.00 0.9149
529.10 0.9144
529.20 0.9138
529.30 0.9133
529.40 0.9128
529.50 0.9123
529.60 0.9117
529.70 0.9112
529.80 0.9107
529.90 0.9101
530.00 0.9096
530.10 0.9091
530.20 0.9085
530.30 0.908
530.40 0.9075
530.50 0.9069
530.60 0.9064
530.70 0.9059
530.80 0.9053
530.90 0.9048
531.00 0.9043
531.10 0.9038
531.20 0.9032
531.30 0.9027
531.40 0.9022
531.50 0.9016
531.60 0.9011
531.70 0.9006
531.80 0.9
531.90 0.8995
532.00 0.899
532.10 0.8984
532.20 0.8979
532.30 0.8974
532.40 0.8969
532.50 0.8963
532.60 0.8958
532.70 0.8953
532.80 0.8947
532.90 0.8942
533.00 0.8937
533.10 0.8931
533.20 0.8926
533.30 0.8921
533.40 0.8915
533.50 0.891
533.60 0.8905
533.70 0.8899
533.80 0.8894
533.90 0.8889
534.00 0.8884
534.10 0.8878
534.20 0.8873
534.30 0.8868
534.40 0.8862
534.50 0.8857
534.60 0.8852
534.70 0.8847
534.80 0.8841
534.90 0.8836
535.00 0.8831
535.10 0.8826
535.20 0.882
535.30 0.8815
535.40 0.881
535.50 0.8804
535.60 0.8799
535.70 0.8794
535.80 0.8789
535.90 0.8783
536.00 0.8778
536.10 0.8773
536.20 0.8767
536.30 0.8762
536.40 0.8757
536.50 0.8752
536.60 0.8746
536.70 0.8741
536.80 0.8736
536.90 0.8731
537.00 0.8725
537.10 0.872
537.20 0.8715
537.30 0.871
537.40 0.8705
537.50 0.8699
537.60 0.8694
537.70 0.8689
537.80 0.8684
537.90 0.8679
538.00 0.8674
538.10 0.8669
538.20 0.8663
538.30 0.8658
538.40 0.8653
538.50 0.8648
538.60 0.8643
538.70 0.8637
538.80 0.8632
538.90 0.8627
539.00 0.8622
539.10 0.8617
539.20 0.8611
539.30 0.8606
539.40 0.8601
539.50 0.8596
539.60 0.859
539.70 0.8585
539.80 0.858
539.90 0.8575
540.00 0.857
540.10 0.8564
540.20 0.8559
540.30 0.8554
540.40 0.8549
540.50 0.8544
540.60 0.8539
540.70 0.8533
540.80 0.8528
540.90 0.8523
541.00 0.8518
541.10 0.8513
541.20 0.8508
541.30 0.8503
541.40 0.8498
541.50 0.8493
541.60 0.8487
541.70 0.8482
541.80 0.8477
541.90 0.8472
542.00 0.8467
542.10 0.8462
542.20 0.8457
542.30 0.8452
542.40 0.8447
542.50 0.8442
542.60 0.8437
542.70 0.8432
542.80 0.8427
542.90 0.8421
543.00 0.8416
543.10 0.8411
543.20 0.8406
543.30 0.8401
543.40 0.8396
543.50 0.8391
543.60 0.8386
543.70 0.8381
543.80 0.8376
543.90 0.8371
544.00 0.8365
544.10 0.836
544.20 0.8355
544.30 0.835
544.40 0.8345
544.50 0.834
544.60 0.8335
544.70 0.833
544.80 0.8325
544.90 0.832
545.00 0.8315
545.10 0.831
545.20 0.8305
545.30 0.83
545.40 0.8295
545.50 0.829
545.60 0.8285
545.70 0.828
545.80 0.8275
545.90 0.827
546.00 0.8265
546.10 0.826
546.20 0.8257
546.30 0.8254
546.40 0.8252
546.50 0.8249
546.60 0.8247
546.70 0.8244
546.80 0.8242
546.90 0.8239
547.00 0.8237
547.10 0.8234
547.20 0.823
547.30 0.8225
547.40 0.822
547.50 0.8214
547.60 0.8209
547.70 0.8204
547.80 0.8199
547.90 0.8194
548.00 0.8189
548.10 0.8184
548.20 0.8179
548.30 0.8174
548.40 0.8169
548.50 0.8164
548.60 0.8159
548.70 0.8154
548.80 0.8149
548.90 0.8144
549.00 0.8139
549.10 0.8134
549.20 0.8129
549.30 0.8124
549.40 0.8119
549.50 0.8114
549.60 0.8109
549.70 0.8104
549.80 0.8099
549.90 0.8094
550.00 0.8089
550.10 0.8084
550.20 0.8079
550.30 0.8074
550.40 0.8069
550.50 0.8064
550.60 0.8059
550.70 0.8054
550.80 0.8049
550.90 0.8044
551.00 0.8039
551.10 0.8034
551.20 0.8029
551.30 0.8024
551.40 0.802
551.50 0.8015
551.60 0.801
551.70 0.8005
551.80 0.8
551.90 0.7995
552.00 0.799
552.10 0.7985
552.20 0.798
552.30 0.7975
552.40 0.797
552.50 0.7966
552.60 0.7961
552.70 0.7956
552.80 0.7951
552.90 0.7946
553.00 0.7941
553.10 0.7936
553.20 0.7931
553.30 0.7927
553.40 0.7922
553.50 0.7917
553.60 0.7912
553.70 0.7907
553.80 0.7902
553.90 0.7897
554.00 0.7893
554.10 0.7888
554.20 0.7883
554.30 0.7878
554.40 0.7873
554.50 0.7869
554.60 0.7864
554.70 0.7859
554.80 0.7854
554.90 0.7849
555.00 0.7845
555.10 0.784
555.20 0.7835
555.30 0.783
555.40 0.7826
555.50 0.7821
555.60 0.7816
555.70 0.7811
555.80 0.7806
555.90 0.7802
556.00 0.7797
556.10 0.7792
556.20 0.7787
556.30 0.7783
556.40 0.7778
556.50 0.7773
556.60 0.7768
556.70 0.7764
556.80 0.7759
556.90 0.7754
557.00 0.775
557.10 0.7745
557.20 0.774
557.30 0.7735
557.40 0.7731
557.50 0.7726
557.60 0.7721
557.70 0.7716
557.80 0.7712
557.90 0.7707
558.00 0.7702
558.10 0.7697
558.20 0.7693
558.30 0.7688
558.40 0.7683
558.50 0.7679
558.60 0.7674
558.70 0.7669
558.80 0.7665
558.90 0.766
559.00 0.7656
559.10 0.7651
559.20 0.7646
559.30 0.7642
559.40 0.7637
559.50 0.7632
559.60 0.7628
559.70 0.7623
559.80 0.7619
559.90 0.7614
560.00 0.7609
560.10 0.7605
560.20 0.76
560.30 0.7595
560.40 0.7591
560.50 0.7586
560.60 0.7582
560.70 0.7577
560.80 0.7572
560.90 0.7568
561.00 0.7563
561.10 0.7559
561.20 0.7554
561.30 0.755
561.40 0.7545
561.50 0.754
561.60 0.7536
561.70 0.7531
561.80 0.7527
561.90 0.7522
562.00 0.7518
562.10 0.7513
562.20 0.7508
562.30 0.7504
562.40 0.7499
562.50 0.7495
562.60 0.749
562.70 0.7486
562.80 0.7481
562.90 0.7477
563.00 0.7472
563.10 0.7468
563.20 0.7463
563.30 0.7459
563.40 0.7454
563.50 0.745
563.60 0.7445
563.70 0.7441
563.80 0.7436
563.90 0.7432
564.00 0.7427
564.10 0.7423
564.20 0.7419
564.30 0.7414
564.40 0.741
564.50 0.7405
564.60 0.7401
564.70 0.7396
564.80 0.7392
564.90 0.7387
565.00 0.7383
565.10 0.7378
565.20 0.7374
565.30 0.7369
565.40 0.7365
565.50 0.736
565.60 0.7356
565.70 0.7352
565.80 0.7347
565.90 0.7343
566.00 0.7339
566.10 0.7334
566.20 0.733
566.30 0.7325
566.40 0.7321
566.50 0.7317
566.60 0.7312
566.70 0.7308
566.80 0.7303
566.90 0.7299
567.00 0.7295
567.10 0.729
567.20 0.7286
567.30 0.7282
567.40 0.7277
567.50 0.7273
567.60 0.7268
567.70 0.7264
567.80 0.726
567.90 0.7255
568.00 0.7251
568.10 0.7246
568.20 0.7242
568.30 0.7238
568.40 0.7233
568.50 0.7229
568.60 0.7225
568.70 0.722
568.80 0.7216
568.90 0.7212
569.00 0.7207
569.10 0.7203
569.20 0.7199
569.30 0.7194
569.40 0.719
569.50 0.7186
569.60 0.7182
569.70 0.7177
569.80 0.7173
569.90 0.7169
570.00 0.7164
570.10 0.716
570.20 0.7156
570.30 0.7152
570.40 0.7147
570.50 0.7143
570.60 0.7139
570.70 0.7135
570.80 0.7131
570.90 0.7126
571.00 0.7122
571.10 0.7118
571.20 0.7114
571.30 0.7109
571.40 0.7105
571.50 0.7101
571.60 0.7097
571.70 0.7092
571.80 0.7088
571.90 0.7084
572.00 0.708
572.10 0.7075
572.20 0.7071
572.30 0.7067
572.40 0.7063
572.50 0.7059
572.60 0.7054
572.70 0.705
572.80 0.7046
572.90 0.7042
573.00 0.7037
573.10 0.7033
573.20 0.7029
573.30 0.7025
573.40 0.7021
573.50 0.7017
573.60 0.7013
573.70 0.7008
573.80 0.7004
573.90 0.7
574.00 0.6996
574.10 0.6992
574.20 0.6988
574.30 0.6984
574.40 0.6979
574.50 0.6975
574.60 0.6971
574.70 0.6967
574.80 0.6963
574.90 0.6958
575.00 0.6954
575.10 0.695
575.20 0.6946
575.30 0.6942
575.40 0.6938
575.50 0.6934
575.60 0.693
575.70 0.6926
575.80 0.6921
575.90 0.6917
576.00 0.6913
576.10 0.6909
576.20 0.6905
576.30 0.6901
576.40 0.6897
576.50 0.6893
576.60 0.6889
576.70 0.6885
576.80 0.6881
576.90 0.6877
577.00 0.6873
577.10 0.6869
577.20 0.6865
577.30 0.686
577.40 0.6856
577.50 0.6852
577.60 0.6848
577.70 0.6844
577.80 0.684
577.90 0.6836
578.00 0.6832
578.10 0.6828
578.20 0.6824
578.30 0.682
578.40 0.6816
578.50 0.6812
578.60 0.6808
578.70 0.6804
578.80 0.68
578.90 0.6796
579.00 0.6792
579.10 0.6788
579.20 0.6784
579.30 0.678
579.40 0.6776
579.50 0.6772
579.60 0.6768
579.70 0.6764
579.80 0.676
579.90 0.6756
580.00 0.6752
580.10 0.6748
580.20 0.6744
580.30 0.674
580.40 0.6736
580.50 0.6732
580.60 0.6728
580.70 0.6724
580.80 0.672
580.90 0.6716
581.00 0.6712
581.10 0.6708
581.20 0.6704
581.30 0.67
581.40 0.6696
581.50 0.6692
581.60 0.6689
581.70 0.6685
581.80 0.6681
581.90 0.6677
582.00 0.6673
582.10 0.6669
582.20 0.6665
582.30 0.6661
582.40 0.6657
582.50 0.6653
582.60 0.6649
582.70 0.6646
582.80 0.6642
582.90 0.6638
583.00 0.6634
583.10 0.663
583.20 0.6626
583.30 0.6622
583.40 0.6618
583.50 0.6614
583.60 0.6611
583.70 0.6607
583.80 0.6603
583.90 0.6599
584.00 0.6595
584.10 0.6591
584.20 0.6587
584.30 0.6583
584.40 0.658
584.50 0.6576
584.60 0.6572
584.70 0.6568
584.80 0.6564
584.90 0.656
585.00 0.6557
585.10 0.6553
585.20 0.6549
585.30 0.6545
585.40 0.6541
585.50 0.6537
585.60 0.6534
585.70 0.653
585.80 0.6526
585.90 0.6522
586.00 0.6518
586.10 0.6514
586.20 0.651
586.30 0.6507
586.40 0.6503
586.50 0.6499
586.60 0.6495
586.70 0.6492
586.80 0.6488
586.90 0.6484
587.00 0.648
587.10 0.6476
587.20 0.6473
587.30 0.6469
587.40 0.6465
587.50 0.6461
587.60 0.6458
587.70 0.6454
587.80 0.645
587.90 0.6446
588.00 0.6443
588.10 0.6439
588.20 0.6435
588.30 0.6431
588.40 0.6428
588.50 0.6424
588.60 0.642
588.70 0.6416
588.80 0.6413
588.90 0.6409
589.00 0.6405
589.10 0.6401
589.20 0.6398
589.30 0.6394
589.40 0.639
589.50 0.6387
589.60 0.6383
589.70 0.6379
589.80 0.6375
589.90 0.6372
590.00 0.6368
590.10 0.6364
590.20 0.6361
590.30 0.6357
590.40 0.6353
590.50 0.635
590.60 0.6346
590.70 0.6342
590.80 0.6339
590.90 0.6335
591.00 0.6332
591.10 0.6328
591.20 0.6324
591.30 0.6321
591.40 0.6317
591.50 0.6313
591.60 0.631
591.70 0.6306
591.80 0.6302
591.90 0.6299
592.00 0.6295
592.10 0.6291
592.20 0.6288
592.30 0.6284
592.40 0.628
592.50 0.6277
592.60 0.6273
592.70 0.6269
592.80 0.6266
592.90 0.6262
593.00 0.6258
593.10 0.6255
593.20 0.6251
593.30 0.6248
593.40 0.6244
593.50 0.624
593.60 0.6237
593.70 0.6233
593.80 0.623
593.90 0.6226
594.00 0.6222
594.10 0.6219
594.20 0.6215
594.30 0.6212
594.40 0.6208
594.50 0.6205
594.60 0.6201
594.70 0.6198
594.80 0.6194
594.90 0.619
595.00 0.6187
595.10 0.6183
595.20 0.618
595.30 0.6176
595.40 0.6173
595.50 0.6169
595.60 0.6165
595.70 0.6162
595.80 0.6158
595.90 0.6155
596.00 0.6151
596.10 0.6147
596.20 0.6141
596.30 0.6133
596.40 0.6125
596.50 0.6117
596.60 0.611
596.70 0.6102
596.80 0.6094
596.90 0.6086
597.00 0.6078
597.10 0.607
597.20 0.6065
597.30 0.6062
597.40 0.6058
597.50 0.6055
597.60 0.6051
597.70 0.6047
597.80 0.6044
597.90 0.604
598.00 0.6037
598.10 0.6033
598.20 0.603
598.30 0.6026
598.40 0.6022
598.50 0.6019
598.60 0.6015
598.70 0.6011
598.80 0.6008
598.90 0.6004
599.00 0.6001
599.10 0.5997
599.20 0.5993
599.30 0.599
599.40 0.5986
599.50 0.5983
599.60 0.5979
599.70 0.5975
599.80 0.5972
599.90 0.5968
600.00 0.5965
600.10 0.5961
600.20 0.5957
600.30 0.5954
600.40 0.595
600.50 0.5947
600.60 0.5943
600.70 0.594
600.80 0.5936
600.90 0.5932
601.00 0.5929
601.10 0.5925
601.20 0.5922
601.30 0.5918
601.40 0.5915
601.50 0.5911
601.60 0.5908
601.70 0.5904
601.80 0.5901
601.90 0.5897
602.00 0.5894
602.10 0.589
602.20 0.5887
602.30 0.5883
602.40 0.588
602.50 0.5876
602.60 0.5873
602.70 0.5869
602.80 0.5865
602.90 0.5862
603.00 0.5858
603.10 0.5855
603.20 0.5851
603.30 0.5848
603.40 0.5844
603.50 0.5841
603.60 0.5837
603.70 0.5834
603.80 0.583
603.90 0.5827
604.00 0.5823
604.10 0.582
604.20 0.5816
604.30 0.5813
604.40 0.5809
604.50 0.5806
604.60 0.5802
604.70 0.5799
604.80 0.5795
604.90 0.5792
605.00 0.5788
605.10 0.5785
605.20 0.5781
605.30 0.5778
605.40 0.5774
605.50 0.5771
605.60 0.5767
605.70 0.5764
605.80 0.576
605.90 0.5757
606.00 0.5753
606.10 0.575
606.20 0.5746
606.30 0.5743
606.40 0.5739
606.50 0.5736
606.60 0.5732
606.70 0.5729
606.80 0.5725
606.90 0.5722
607.00 0.5718
607.10 0.5715
607.20 0.5712
607.30 0.5708
607.40 0.5705
607.50 0.5701
607.60 0.5698
607.70 0.5694
607.80 0.5691
607.90 0.5687
608.00 0.5684
608.10 0.5681
608.20 0.5677
608.30 0.5674
608.40 0.567
608.50 0.5667
608.60 0.5663
608.70 0.566
608.80 0.5656
608.90 0.5653
609.00 0.5649
609.10 0.5646
609.20 0.5642
609.30 0.5639
609.40 0.5636
609.50 0.5632
609.60 0.5629
609.70 0.5625
609.80 0.5622
609.90 0.5618
610.00 0.5615
610.10 0.5611
610.20 0.5608
610.30 0.5605
610.40 0.5601
610.50 0.5598
610.60 0.5594
610.70 0.5591
610.80 0.5587
610.90 0.5584
611.00 0.5581
611.10 0.5577
611.20 0.5574
611.30 0.557
611.40 0.5567
611.50 0.5563
611.60 0.556
611.70 0.5556
611.80 0.5553
611.90 0.555
612.00 0.5546
612.10 0.5543
612.20 0.5539
612.30 0.5536
612.40 0.5532
612.50 0.5529
612.60 0.5526
612.70 0.5522
612.80 0.5519
612.90 0.5516
613.00 0.5512
613.10 0.5509
613.20 0.5505
613.30 0.5502
613.40 0.5498
613.50 0.5495
613.60 0.5492
613.70 0.5488
613.80 0.5485
613.90 0.5481
614.00 0.5478
614.10 0.5475
614.20 0.5471
614.30 0.5468
614.40 0.5464
614.50 0.5461
614.60 0.5457
614.70 0.5454
614.80 0.545
614.90 0.5447
615.00 0.5444
615.10 0.544
615.20 0.5437
615.30 0.5433
615.40 0.543
615.50 0.5426
615.60 0.5423
615.70 0.542
615.80 0.5416
615.90 0.5413
616.00 0.5409
616.10 0.5406
616.20 0.5402
616.30 0.5399
616.40 0.5396
616.50 0.5392
616.60 0.5389
616.70 0.5385
616.80 0.5382
616.90 0.5379
617.00 0.5375
617.10 0.5372
617.20 0.5368
617.30 0.5365
617.40 0.5361
617.50 0.5358
617.60 0.5355
617.70 0.5351
617.80 0.5348
617.90 0.5344
618.00 0.5341
618.10 0.5337
618.20 0.5334
618.30 0.533
618.40 0.5327
618.50 0.5323
618.60 0.532
618.70 0.5317
618.80 0.5313
618.90 0.531
619.00 0.5306
619.10 0.5303
619.20 0.5299
619.30 0.5296
619.40 0.5292
619.50 0.5289
619.60 0.5285
619.70 0.5282
619.80 0.5279
619.90 0.5275
620.00 0.5272
620.10 0.5268
620.20 0.5265
620.30 0.5261
620.40 0.5258
620.50 0.5254
620.60 0.5251
620.70 0.5247
620.80 0.5244
620.90 0.524
621.00 0.5236
621.10 0.5233
621.20 0.5229
621.30 0.5226
621.40 0.5223
621.50 0.5219
621.60 0.5216
621.70 0.5212
621.80 0.5209
621.90 0.5205
622.00 0.5202
622.10 0.5198
622.20 0.5195
622.30 0.5191
622.40 0.5188
622.50 0.5184
622.60 0.5181
622.70 0.5177
622.80 0.5174
622.90 0.517
623.00 0.5167
623.10 0.5163
623.20 0.516
623.30 0.5156
623.40 0.5152
623.50 0.5149
623.60 0.5145
623.70 0.5142
623.80 0.5138
623.90 0.5135
624.00 0.5131
624.10 0.5127
624.20 0.5124
624.30 0.512
624.40 0.5117
624.50 0.5113
624.60 0.511
624.70 0.5106
624.80 0.5102
624.90 0.5099
625.00 0.5095
625.10 0.5092
625.20 0.5088
625.30 0.5084
625.40 0.5081
625.50 0.5077
625.60 0.5073
625.70 0.507
625.80 0.5066
625.90 0.5063
626.00 0.5059
626.10 0.5055
626.20 0.5052
626.30 0.5048
626.40 0.5045
626.50 0.5041
626.60 0.5037
626.70 0.5034
626.80 0.503
626.90 0.5026
627.00 0.5023
627.10 0.5019
627.20 0.5015
627.30 0.5012
627.40 0.5008
627.50 0.5004
627.60 0.5001
627.70 0.4997
627.80 0.4993
627.90 0.499
628.00 0.4986
628.10 0.4982
628.20 0.4979
628.30 0.4975
628.40 0.4971
628.50 0.4967
628.60 0.4963
628.70 0.496
628.80 0.4956
628.90 0.4952
629.00 0.4948
629.10 0.4945
629.20 0.4941
629.30 0.4937
629.40 0.4933
629.50 0.4929
629.60 0.4925
629.70 0.4922
629.80 0.4918
629.90 0.4914
630.00 0.491
630.10 0.4906
630.20 0.4903
630.30 0.4899
630.40 0.4895
630.50 0.4891
630.60 0.4887
630.70 0.4883
630.80 0.4879
630.90 0.4875
631.00 0.4871
631.10 0.4868
631.20 0.4864
631.30 0.486
631.40 0.4856
631.50 0.4852
631.60 0.4848
631.70 0.4844
631.80 0.484
631.90 0.4836
632.00 0.4832
632.10 0.4828
632.20 0.4824
632.30 0.482
632.40 0.4816
632.50 0.4812
632.60 0.4808
632.70 0.4803
632.80 0.4799
632.90 0.4795
633.00 0.4791
633.10 0.4787
633.20 0.4783
633.30 0.4779
633.40 0.4774
633.50 0.477
633.60 0.4766
633.70 0.4762
633.80 0.4758
633.90 0.4753
634.00 0.4749
634.10 0.4745
634.20 0.4741
634.30 0.4736
634.40 0.4732
634.50 0.4728
634.60 0.4723
634.70 0.4719
634.80 0.4714
634.90 0.471
635.00 0.4706
635.10 0.4701
635.20 0.4697
635.30 0.4692
635.40 0.4688
635.50 0.4683
635.60 0.4679
635.70 0.4674
635.80 0.467
635.90 0.4665
636.00 0.4661
636.10 0.4656
636.20 0.4651
636.30 0.4647
636.40 0.4642
636.50 0.4637
636.60 0.4633
636.70 0.4628
636.80 0.4623
636.90 0.4619
637.00 0.4614
637.10 0.4609
637.20 0.4605
637.30 0.46
637.40 0.4595
637.50 0.459
637.60 0.4585
637.70 0.458
637.80 0.4575
637.90 0.457
638.00 0.4565
638.10 0.4561
638.20 0.4556
638.30 0.4551
638.40 0.4546
638.50 0.454
638.60 0.4535
638.70 0.453
638.80 0.4525
638.90 0.452
639.00 0.4515
639.10 0.4509
639.20 0.4504
639.30 0.4499
639.40 0.4494
639.50 0.4488
639.60 0.4483
639.70 0.4477
639.80 0.4472
639.90 0.4467
640.00 0.4461
640.10 0.4456
640.20 0.4451
640.30 0.4445
640.40 0.4439
640.50 0.4434
640.60 0.4428
640.70 0.4422
640.80 0.4417
640.90 0.4411
641.00 0.4405
641.10 0.44
641.20 0.4394
641.30 0.4388
641.40 0.4382
641.50 0.4376
641.60 0.437
641.70 0.4364
641.80 0.4358
641.90 0.4352
642.00 0.4346
642.10 0.434
642.20 0.4334
642.30 0.4328
642.40 0.4322
642.50 0.4315
642.60 0.4309
642.70 0.4303
642.80 0.4296
642.90 0.429
643.00 0.4284
643.10 0.4277
643.20 0.4271
643.30 0.4265
643.40 0.4258
643.50 0.4251
643.60 0.4244
643.70 0.4237
643.80 0.4231
643.90 0.4224
644.00 0.4217
644.10 0.421
644.20 0.4204
644.30 0.4197
644.40 0.419
644.50 0.4182
644.60 0.4175
644.70 0.4168
644.80 0.4161
644.90 0.4153
645.00 0.4146
645.10 0.4139
645.20 0.4132
645.30 0.4125
645.40 0.4117
645.50 0.4109
645.60 0.4101
645.70 0.4094
645.80 0.4086
645.90 0.4078
646.00 0.4071
646.10 0.4063
646.20 0.4055
646.30 0.4047
646.40 0.4039
646.50 0.4031
646.60 0.4023
646.70 0.4014
646.80 0.4006
646.90 0.3998
647.00 0.399
647.10 0.3981
647.20 0.3973
647.30 0.3965
647.40 0.3956
647.50 0.3947
647.60 0.3937
647.70 0.3928
647.80 0.3919
647.90 0.391
648.00 0.3901
648.10 0.3892
648.20 0.3883
648.30 0.3874
648.40 0.3863
648.50 0.3853
648.60 0.3843
648.70 0.3832
648.80 0.3822
648.90 0.3812
649.00 0.3802
649.10 0.3791
649.20 0.3781
649.30 0.3771
649.40 0.3759
649.50 0.3747
649.60 0.3736
649.70 0.3724
649.80 0.3712
649.90 0.3701
650.00 0.3689
650.10 0.3678
650.20 0.3666
650.30 0.3654
650.40 0.3641
650.50 0.3627
650.60 0.3614
650.70 0.3601
650.80 0.3588
650.90 0.3574
651.00 0.3561
651.10 0.3548
651.20 0.3535
651.30 0.3521
651.40 0.3506
651.50 0.3491
651.60 0.3476
651.70 0.3461
651.80 0.3446
651.90 0.3431
652.00 0.3416
652.10 0.3401
652.20 0.3386
652.30 0.3371
652.40 0.3354
652.50 0.3337
652.60 0.332
652.70 0.3302
652.80 0.3285
652.90 0.3268
653.00 0.3251
653.10 0.3234
653.20 0.3217
653.30 0.3199
653.40 0.3179
653.50 0.3159
653.60 0.3138
653.70 0.3118
653.80 0.3097
653.90 0.3077
654.00 0.3057
654.10 0.3036
654.20 0.3016
654.30 0.2995
654.40 0.2972
654.50 0.2949
654.60 0.2926
654.70 0.2903
654.80 0.2879
654.90 0.2852
655.00 0.2826
655.10 0.2799
655.20 0.2773
655.30 0.2746
655.40 0.2715
655.50 0.2683
655.60 0.2647
655.70 0.2608
655.80 0.2563
655.90 0.251
656.00 0.243
656.10 0.2338
656.20 0.2128
656.30 0.1947
656.40 0.2225
656.50 0.2375
656.60 0.2454
656.70 0.2526
656.80 0.2569
656.90 0.261
657.00 0.2644
657.10 0.2677
657.20 0.2705
657.30 0.2733
657.40 0.2757
657.50 0.278
657.60 0.2804
657.70 0.2828
657.80 0.2851
657.90 0.2871
658.00 0.2892
658.10 0.2912
658.20 0.2932
658.30 0.2952
658.40 0.2969
658.50 0.2986
658.60 0.3003
658.70 0.3021
658.80 0.3038
658.90 0.3055
659.00 0.3072
659.10 0.3089
659.20 0.3107
659.30 0.3123
659.40 0.3137
659.50 0.315
659.60 0.3164
659.70 0.3178
659.80 0.3191
659.90 0.3205
660.00 0.3219
660.10 0.3232
660.20 0.3246
660.30 0.3259
660.40 0.327
660.50 0.3282
660.60 0.3293
660.70 0.3304
660.80 0.3315
660.90 0.3327
661.00 0.3338
661.10 0.3349
661.20 0.336
661.30 0.3371
661.40 0.3381
661.50 0.339
661.60 0.3399
661.70 0.3409
661.80 0.3418
661.90 0.3427
662.00 0.3437
662.10 0.3446
662.20 0.3455
662.30 0.3464
662.40 0.3472
662.50 0.3479
662.60 0.3487
662.70 0.3495
662.80 0.3502
662.90 0.351
663.00 0.3517
663.10 0.3525
663.20 0.3532
663.30 0.3539
663.40 0.3545
663.50 0.3552
663.60 0.3558
663.70 0.3564
663.80 0.357
663.90 0.3576
664.00 0.3582
664.10 0.3588
664.20 0.3594
664.30 0.36
664.40 0.3605
664.50 0.3609
664.60 0.3614
664.70 0.3619
664.80 0.3624
664.90 0.3628
665.00 0.3633
665.10 0.3638
665.20 0.3643
665.30 0.3647
665.40 0.3651
665.50 0.3655
665.60 0.3659
665.70 0.3663
665.80 0.3667
665.90 0.367
666.00 0.3674
666.10 0.3678
666.20 0.3682
666.30 0.3686
666.40 0.3689
666.50 0.3692
666.60 0.3695
666.70 0.3698
666.80 0.3702
666.90 0.3705
667.00 0.3708
667.10 0.3711
667.20 0.3714
667.30 0.3717
667.40 0.372
667.50 0.3723
667.60 0.3725
667.70 0.3728
667.80 0.373
667.90 0.3733
668.00 0.3736
668.10 0.3738
668.20 0.3741
668.30 0.3743
668.40 0.3745
668.50 0.3747
668.60 0.3749
668.70 0.3752
668.80 0.3754
668.90 0.3756
669.00 0.3758
669.10 0.376
669.20 0.3762
669.30 0.3764
669.40 0.3766
669.50 0.3767
669.60 0.3769
669.70 0.377
669.80 0.3772
669.90 0.3774
670.00 0.3775
670.10 0.3777
670.20 0.3778
670.30 0.378
670.40 0.3781
670.50 0.3782
670.60 0.3783
670.70 0.3785
670.80 0.3786
670.90 0.3787
671.00 0.3788
671.10 0.3789
671.20 0.3791
671.30 0.3792
671.40 0.3792
671.50 0.3793
671.60 0.3794
671.70 0.3795
671.80 0.3796
671.90 0.3797
672.00 0.3797
672.10 0.3798
672.20 0.3799
672.30 0.38
672.40 0.38
672.50 0.3801
672.60 0.3801
672.70 0.3802
672.80 0.3802
672.90 0.3803
673.00 0.3803
673.10 0.3804
673.20 0.3805
673.30 0.3805
673.40 0.3805
673.50 0.3805
673.60 0.3806
673.70 0.3806
673.80 0.3806
673.90 0.3806
674.00 0.3807
674.10 0.3807
674.20 0.3807
674.30 0.3807
674.40 0.3807
674.50 0.3807
674.60 0.3807
674.70 0.3807
674.80 0.3807
674.90 0.3807
675.00 0.3807
675.10 0.3807
675.20 0.3807
675.30 0.3807
675.40 0.3807
675.50 0.3806
675.60 0.3806
675.70 0.3806
675.80 0.3806
675.90 0.3806
676.00 0.3805
676.10 0.3805
676.20 0.3805
676.30 0.3805
676.40 0.3804
676.50 0.3804
676.60 0.3803
676.70 0.3803
676.80 0.3802
676.90 0.3802
677.00 0.3802
677.10 0.3801
677.20 0.3801
677.30 0.38
677.40 0.38
677.50 0.3799
677.60 0.3798
677.70 0.3798
677.80 0.3797
677.90 0.3797
678.00 0.3796
678.10 0.3795
678.20 0.3795
678.30 0.3794
678.40 0.3793
678.50 0.3793
678.60 0.3792
678.70 0.3791
678.80 0.379
678.90 0.379
679.00 0.3789
679.10 0.3788
679.20 0.3787
679.30 0.3787
679.40 0.3786
679.50 0.3785
679.60 0.3784
679.70 0.3783
679.80 0.3782
679.90 0.3781
680.00 0.378
680.10 0.378
680.20 0.3779
680.30 0.3778
680.40 0.3777
680.50 0.3776
680.60 0.3775
680.70 0.3774
680.80 0.3773
680.90 0.3772
681.00 0.3771
681.10 0.377
681.20 0.3769
681.30 0.3768
681.40 0.3767
681.50 0.3766
681.60 0.3765
681.70 0.3764
681.80 0.3763
681.90 0.3761
682.00 0.376
682.10 0.3759
682.20 0.3758
682.30 0.3757
682.40 0.3756
682.50 0.3755
682.60 0.3754
682.70 0.3752
682.80 0.3751
682.90 0.375
683.00 0.3749
683.10 0.3748
683.20 0.3747
683.30 0.3745
683.40 0.3744
683.50 0.3743
683.60 0.3742
683.70 0.3741
683.80 0.3739
683.90 0.3738
684.00 0.3737
684.10 0.3736
684.20 0.3734
684.30 0.3733
684.40 0.3732
684.50 0.3731
684.60 0.3729
684.70 0.3728
684.80 0.3727
684.90 0.3725
685.00 0.3724
685.10 0.3723
685.20 0.3722
685.30 0.372
685.40 0.3719
685.50 0.3718
685.60 0.3716
685.70 0.3715
685.80 0.3714
685.90 0.3712
686.00 0.3711
686.10 0.371
686.20 0.3708
686.30 0.3707
686.40 0.3706
686.50 0.3704
686.60 0.3703
686.70 0.3701
686.80 0.37
686.90 0.3699
687.00 0.3697
687.10 0.3696
687.20 0.3695
687.30 0.3693
687.40 0.3692
687.50 0.369
687.60 0.3689
687.70 0.3687
687.80 0.3686
687.90 0.3685
688.00 0.3683
688.10 0.3682
688.20 0.368
688.30 0.3679
688.40 0.3678
688.50 0.3676
688.60 0.3675
688.70 0.3673
688.80 0.3672
688.90 0.367
689.00 0.3669
689.10 0.3667
689.20 0.3666
689.30 0.3664
689.40 0.3663
689.50 0.3661
689.60 0.366
689.70 0.3658
689.80 0.3657
689.90 0.3655
690.00 0.3653
690.10 0.3652
690.20 0.365
690.30 0.3649
690.40 0.3647
690.50 0.3645
690.60 0.3644
690.70 0.3642
690.80 0.3641
690.90 0.3639
691.00 0.3637
691.10 0.3636
691.20 0.3634
691.30 0.3633
691.40 0.3631
691.50 0.363
691.60 0.3628
691.70 0.3626
691.80 0.3625
691.90 0.3623
692.00 0.3622
692.10 0.362
692.20 0.3619
692.30 0.3617
692.40 0.3615
692.50 0.3614
692.60 0.3612
692.70 0.3611
692.80 0.3609
692.90 0.3608
693.00 0.3606
693.10 0.3604
693.20 0.3603
693.30 0.3601
693.40 0.36
693.50 0.3598
693.60 0.3597
693.70 0.3595
693.80 0.3593
693.90 0.3592
694.00 0.359
694.10 0.3589
694.20 0.3587
694.30 0.3586
694.40 0.3584
694.50 0.3583
694.60 0.3581
694.70 0.3579
694.80 0.3578
694.90 0.3576
695.00 0.3575
695.10 0.3573
695.20 0.3572
695.30 0.357
695.40 0.3569
695.50 0.3567
695.60 0.3565
695.70 0.3564
695.80 0.3562
695.90 0.3561
696.00 0.3559
696.10 0.3558
696.20 0.3556
696.30 0.3555
696.40 0.3553
696.50 0.3552
696.60 0.355
696.70 0.3549
696.80 0.3547
696.90 0.3545
697.00 0.3544
697.10 0.3542
697.20 0.3541
697.30 0.3539
697.40 0.3538
697.50 0.3536
697.60 0.3535
697.70 0.3533
697.80 0.3532
697.90 0.353
698.00 0.3529
698.10 0.3527
698.20 0.3525
698.30 0.3524
698.40 0.3522
698.50 0.3521
698.60 0.3519
698.70 0.3518
698.80 0.3516
698.90 0.3515
699.00 0.3513
699.10 0.3512
699.20 0.351
699.30 0.3509
699.40 0.3507
699.50 0.3506
699.60 0.3504
699.70 0.3503
699.80 0.3501
699.90 0.35
700.00 0.3498
700.10 0.3497
700.20 0.3495
700.30 0.3494
700.40 0.3492
700.50 0.349
700.60 0.3489
700.70 0.3487
700.80 0.3486
700.90 0.3484
701.00 0.3483
701.10 0.3481
701.20 0.348
701.30 0.3478
701.40 0.3477
701.50 0.3475
701.60 0.3474
701.70 0.3472
701.80 0.3471
701.90 0.3469
702.00 0.3468
702.10 0.3466
702.20 0.3465
702.30 0.3463
702.40 0.3462
702.50 0.346
702.60 0.3459
702.70 0.3457
702.80 0.3456
702.90 0.3454
703.00 0.3453
703.10 0.3451
703.20 0.345
703.30 0.3448
703.40 0.3447
703.50 0.3445
703.60 0.3444
703.70 0.3442
703.80 0.3441
703.90 0.3439
704.00 0.3438
704.10 0.3436
704.20 0.3435
704.30 0.3433
704.40 0.3432
704.50 0.343
704.60 0.3429
704.70 0.3427
704.80 0.3426
704.90 0.3424
705.00 0.3423
705.10 0.3421
705.20 0.3419
705.30 0.3418
705.40 0.3416
705.50 0.3415
705.60 0.3413
705.70 0.3411
705.80 0.341
705.90 0.3408
706.00 0.3407
706.10 0.3405
706.20 0.3403
706.30 0.3402
706.40 0.34
706.50 0.3399
706.60 0.3397
706.70 0.3395
706.80 0.3394
706.90 0.3392
707.00 0.3391
707.10 0.3389
707.20 0.3387
707.30 0.3386
707.40 0.3384
707.50 0.3383
707.60 0.3381
707.70 0.3379
707.80 0.3378
707.90 0.3376
708.00 0.3375
708.10 0.3373
708.20 0.3371
708.30 0.337
708.40 0.3368
708.50 0.3367
708.60 0.3365
708.70 0.3364
708.80 0.3362
708.90 0.336
709.00 0.3359
709.10 0.3357
709.20 0.3356
709.30 0.3354
709.40 0.3352
709.50 0.3351
709.60 0.3349
709.70 0.3348
709.80 0.3346
709.90 0.3345
710.00 0.3343
710.10 0.3341
710.20 0.334
710.30 0.3338
710.40 0.3337
710.50 0.3335
710.60 0.3333
710.70 0.3332
710.80 0.333
710.90 0.3329
711.00 0.3327
711.10 0.3326
711.20 0.3324
711.30 0.3322
711.40 0.3321
711.50 0.3319
711.60 0.3318
711.70 0.3316
711.80 0.3315
711.90 0.3313
712.00 0.3311
712.10 0.331
712.20 0.3308
712.30 0.3307
712.40 0.3305
712.50 0.3304
712.60 0.3302
712.70 0.33
712.80 0.3299
712.90 0.3297
713.00 0.3296
713.10 0.3294
713.20 0.3293
713.30 0.3291
713.40 0.3289
713.50 0.3288
713.60 0.3286
713.70 0.3285
713.80 0.3283
713.90 0.3282
714.00 0.328
714.10 0.3279
714.20 0.3277
714.30 0.3275
714.40 0.3274
714.50 0.3272
714.60 0.3271
714.70 0.3269
714.80 0.3268
714.90 0.3266
715.00 0.3265
715.10 0.3263
715.20 0.3262
715.30 0.326
715.40 0.3259
715.50 0.3258
715.60 0.3256
715.70 0.3255
715.80 0.3253
715.90 0.3252
716.00 0.3251
716.10 0.3249
716.20 0.3248
716.30 0.3246
716.40 0.3245
716.50 0.3244
716.60 0.3242
716.70 0.3241
716.80 0.3239
716.90 0.3238
717.00 0.3237
717.10 0.3235
717.20 0.3234
717.30 0.3233
717.40 0.3231
717.50 0.323
717.60 0.3228
717.70 0.3227
717.80 0.3226
717.90 0.3224
718.00 0.3223
718.10 0.3222
718.20 0.322
718.30 0.3219
718.40 0.3217
718.50 0.3216
718.60 0.3215
718.70 0.3213
718.80 0.3212
718.90 0.3211
719.00 0.3209
719.10 0.3208
719.20 0.3206
719.30 0.3205
719.40 0.3204
719.50 0.3202
719.60 0.3201
719.70 0.32
719.80 0.3198
719.90 0.3197
720.00 0.3195
720.10 0.3194
720.20 0.3192
720.30 0.3191
720.40 0.3189
720.50 0.3188
720.60 0.3186
720.70 0.3185
720.80 0.3183
720.90 0.3181
721.00 0.318
721.10 0.3178
721.20 0.3177
721.30 0.3175
721.40 0.3174
721.50 0.3172
721.60 0.3171
721.70 0.3169
721.80 0.3168
721.90 0.3166
722.00 0.3165
722.10 0.3163
722.20 0.3161
722.30 0.316
722.40 0.3158
722.50 0.3157
722.60 0.3155
722.70 0.3154
722.80 0.3152
722.90 0.3151
723.00 0.3149
723.10 0.3148
723.20 0.3146
723.30 0.3145
723.40 0.3143
723.50 0.3142
723.60 0.314
723.70 0.3138
723.80 0.3137
723.90 0.3135
724.00 0.3134
724.10 0.3132
724.20 0.3131
724.30 0.3129
724.40 0.3128
724.50 0.3126
724.60 0.3125
724.70 0.3123
724.80 0.3122
724.90 0.312
725.00 0.3119
725.10 0.3117
725.20 0.3116
725.30 0.3114
725.40 0.3113
725.50 0.3111
725.60 0.311
725.70 0.3108
725.80 0.3107
725.90 0.3105
726.00 0.3104
726.10 0.3102
726.20 0.3101
726.30 0.3099
726.40 0.3098
726.50 0.3096
726.60 0.3095
726.70 0.3093
726.80 0.3092
726.90 0.309
727.00 0.3089
727.10 0.3087
727.20 0.3086
727.30 0.3084
727.40 0.3083
727.50 0.3081
727.60 0.308
727.70 0.3078
727.80 0.3077
727.90 0.3075
728.00 0.3074
728.10 0.3072
728.20 0.3071
728.30 0.3069
728.40 0.3068
728.50 0.3066
728.60 0.3065
728.70 0.3063
728.80 0.3062
728.90 0.3061
729.00 0.3059
729.10 0.3058
729.20 0.3056
729.30 0.3055
729.40 0.3053
729.50 0.3052
729.60 0.305
729.70 0.3049
729.80 0.3047
729.90 0.3046
730.00 0.3044
730.10 0.3043
730.20 0.3041
730.30 0.304
730.40 0.3038
730.50 0.3037
730.60 0.3036
730.70 0.3034
730.80 0.3033
730.90 0.3031
731.00 0.303
731.10 0.3028
731.20 0.3027
731.30 0.3025
731.40 0.3024
731.50 0.3022
731.60 0.3021
731.70 0.302
731.80 0.3018
731.90 0.3017
732.00 0.3015
732.10 0.3014
732.20 0.3012
732.30 0.3011
732.40 0.301
732.50 0.3008
732.60 0.3007
732.70 0.3005
732.80 0.3004
732.90 0.3002
733.00 0.3001
733.10 0.2999
733.20 0.2998
733.30 0.2997
733.40 0.2995
733.50 0.2994
733.60 0.2992
733.70 0.2991
733.80 0.2989
733.90 0.2988
734.00 0.2987
734.10 0.2985
734.20 0.2984
734.30 0.2982
734.40 0.2981
734.50 0.2979
734.60 0.2978
734.70 0.2977
734.80 0.2975
734.90 0.2974
735.00 0.2972
735.10 0.2971
735.20 0.2969
735.30 0.2968
735.40 0.2967
735.50 0.2965
735.60 0.2964
735.70 0.2962
735.80 0.2961
735.90 0.2959
736.00 0.2958
736.10 0.2957
736.20 0.2955
736.30 0.2954
736.40 0.2952
736.50 0.2951
736.60 0.295
736.70 0.2948
736.80 0.2947
736.90 0.2945
737.00 0.2944
737.10 0.2943
737.20 0.2941
737.30 0.294
737.40 0.2938
737.50 0.2937
737.60 0.2935
737.70 0.2934
737.80 0.2933
737.90 0.2931
738.00 0.293
738.10 0.2928
738.20 0.2927
738.30 0.2926
738.40 0.2924
738.50 0.2923
738.60 0.2921
738.70 0.292
738.80 0.2919
738.90 0.2917
739.00 0.2916
739.10 0.2914
739.20 0.2913
739.30 0.2912
739.40 0.291
739.50 0.2909
739.60 0.2908
739.70 0.2906
739.80 0.2905
739.90 0.2903
740.00 0.2902
740.10 0.2901
740.20 0.2899
740.30 0.2898
740.40 0.2896
740.50 0.2895
740.60 0.2894
740.70 0.2892
740.80 0.2891
740.90 0.289
741.00 0.2888
741.10 0.2887
741.20 0.2886
741.30 0.2884
741.40 0.2883
741.50 0.2881
741.60 0.288
741.70 0.2879
741.80 0.2877
741.90 0.2876
742.00 0.2875
742.10 0.2873
742.20 0.2872
742.30 0.2871
742.40 0.2869
742.50 0.2868
742.60 0.2866
742.70 0.2865
742.80 0.2864
742.90 0.2862
743.00 0.2861
743.10 0.286
743.20 0.2858
743.30 0.2857
743.40 0.2856
743.50 0.2854
743.60 0.2853
743.70 0.2852
743.80 0.285
743.90 0.2849
744.00 0.2848
744.10 0.2846
744.20 0.2845
744.30 0.2844
744.40 0.2842
744.50 0.2841
744.60 0.2839
744.70 0.2838
744.80 0.2837
744.90 0.2835
745.00 0.2834
745.10 0.2833
745.20 0.2831
745.30 0.283
745.40 0.2829
745.50 0.2827
745.60 0.2826
745.70 0.2825
745.80 0.2823
745.90 0.2822
746.00 0.2821
746.10 0.2819
746.20 0.2818
746.30 0.2817
746.40 0.2815
746.50 0.2814
746.60 0.2813
746.70 0.2811
746.80 0.281
746.90 0.2809
747.00 0.2807
747.10 0.2806
747.20 0.2805
747.30 0.2803
747.40 0.2802
747.50 0.2801
747.60 0.2799
747.70 0.2798
747.80 0.2797
747.90 0.2795
748.00 0.2794
748.10 0.2793
748.20 0.2792
748.30 0.279
748.40 0.2789
748.50 0.2788
748.60 0.2786
748.70 0.2785
748.80 0.2784
748.90 0.2782
749.00 0.2781
749.10 0.278
749.20 0.2778
749.30 0.2777
749.40 0.2776
749.50 0.2774
749.60 0.2773
749.70 0.2772
749.80 0.277
749.90 0.2769
750.00 0.2768
750.10 0.2767
750.20 0.2765
750.30 0.2764
750.40 0.2763
750.50 0.2761
750.60 0.276
750.70 0.2759
750.80 0.2758
750.90 0.2756
751.00 0.2755
751.10 0.2754
751.20 0.2752
751.30 0.2751
751.40 0.275
751.50 0.2749
751.60 0.2747
751.70 0.2746
751.80 0.2745
751.90 0.2743
752.00 0.2742
752.10 0.2741
752.20 0.274
752.30 0.2738
752.40 0.2737
752.50 0.2736
752.60 0.2734
752.70 0.2733
752.80 0.2732
752.90 0.2731
753.00 0.2729
753.10 0.2728
753.20 0.2727
753.30 0.2725
753.40 0.2724
753.50 0.2723
753.60 0.2722
753.70 0.272
753.80 0.2719
753.90 0.2718
754.00 0.2717
754.10 0.2715
754.20 0.2714
754.30 0.2713
754.40 0.2712
754.50 0.271
754.60 0.2709
754.70 0.2708
754.80 0.2706
754.90 0.2705
755.00 0.2704
755.10 0.2703
755.20 0.2701
755.30 0.27
755.40 0.2699
755.50 0.2698
755.60 0.2696
755.70 0.2695
755.80 0.2694
755.90 0.2693
756.00 0.2691
756.10 0.269
756.20 0.2689
756.30 0.2688
756.40 0.2686
756.50 0.2685
756.60 0.2684
756.70 0.2683
756.80 0.2681
756.90 0.268
757.00 0.2679
757.10 0.2678
757.20 0.2676
757.30 0.2675
757.40 0.2674
757.50 0.2673
757.60 0.2671
757.70 0.267
757.80 0.2669
757.90 0.2668
758.00 0.2666
758.10 0.2665
758.20 0.2664
758.30 0.2663
758.40 0.2661
758.50 0.266
758.60 0.2659
758.70 0.2658
758.80 0.2656
758.90 0.2655
759.00 0.2654
759.10 0.2653
759.20 0.2651
759.30 0.265
759.40 0.2649
759.50 0.2648
759.60 0.2646
759.70 0.2645
759.80 0.2644
759.90 0.2643
760.00 0.2641
760.10 0.264
760.20 0.2639
760.30 0.2638
760.40 0.2637
760.50 0.2635
760.60 0.2634
760.70 0.2633
760.80 0.2632
760.90 0.263
761.00 0.2629
761.10 0.2628
761.20 0.2627
761.30 0.2626
761.40 0.2624
761.50 0.2623
761.60 0.2622
761.70 0.2621
761.80 0.262
761.90 0.2618
762.00 0.2617
762.10 0.2616
762.20 0.2615
762.30 0.2614
762.40 0.2612
762.50 0.2611
762.60 0.261
762.70 0.2609
762.80 0.2607
762.90 0.2606
763.00 0.2605
763.10 0.2604
763.20 0.2603
763.30 0.2601
763.40 0.26
763.50 0.2599
763.60 0.2598
763.70 0.2597
763.80 0.2595
763.90 0.2594
764.00 0.2593
764.10 0.2592
764.20 0.2591
764.30 0.2589
764.40 0.2588
764.50 0.2587
764.60 0.2586
764.70 0.2585
764.80 0.2583
764.90 0.2582
765.00 0.2581
765.10 0.258
765.20 0.2579
765.30 0.2578
765.40 0.2576
765.50 0.2575
765.60 0.2574
765.70 0.2573
765.80 0.2572
765.90 0.257
766.00 0.2569
766.10 0.2568
766.20 0.2567
766.30 0.2566
766.40 0.2564
766.50 0.2563
766.60 0.2562
766.70 0.2561
766.80 0.256
766.90 0.2559
767.00 0.2557
767.10 0.2556
767.20 0.2555
767.30 0.2554
767.40 0.2553
767.50 0.2551
767.60 0.255
767.70 0.2549
767.80 0.2548
767.90 0.2547
768.00 0.2546
768.10 0.2544
768.20 0.2543
768.30 0.2542
768.40 0.2541
768.50 0.254
768.60 0.2539
768.70 0.2537
768.80 0.2536
768.90 0.2535
769.00 0.2534
769.10 0.2533
769.20 0.2531
769.30 0.253
769.40 0.2529
769.50 0.2528
769.60 0.2527
769.70 0.2526
769.80 0.2524
769.90 0.2523
770.00 0.2522
770.10 0.2521
770.20 0.252
770.30 0.2519
770.40 0.2518
770.50 0.2516
770.60 0.2515
770.70 0.2514
770.80 0.2513
770.90 0.2512
771.00 0.2511
771.10 0.2509
771.20 0.2508
771.30 0.2507
771.40 0.2506
771.50 0.2505
771.60 0.2504
771.70 0.2503
771.80 0.2501
771.90 0.25
772.00 0.2499
772.10 0.2498
772.20 0.2497
772.30 0.2496
772.40 0.2495
772.50 0.2494
772.60 0.2492
772.70 0.2491
772.80 0.249
772.90 0.2489
773.00 0.2488
773.10 0.2487
773.20 0.2486
773.30 0.2484
773.40 0.2483
773.50 0.2482
773.60 0.2481
773.70 0.248
773.80 0.2479
773.90 0.2478
774.00 0.2476
774.10 0.2475
774.20 0.2474
774.30 0.2473
774.40 0.2472
774.50 0.2471
774.60 0.247
774.70 0.2469
774.80 0.2467
774.90 0.2466
775.00 0.2465
775.10 0.2464
775.20 0.2463
775.30 0.2462
775.40 0.2461
775.50 0.246
775.60 0.2458
775.70 0.2457
775.80 0.2456
775.90 0.2455
776.00 0.2454
776.10 0.2453
776.20 0.2452
776.30 0.2451
776.40 0.2449
776.50 0.2448
776.60 0.2447
776.70 0.2446
776.80 0.2445
776.90 0.2444
777.00 0.2443
777.10 0.2442
777.20 0.2441
777.30 0.2439
777.40 0.2438
777.50 0.2437
777.60 0.2436
777.70 0.2435
777.80 0.2434
777.90 0.2433
778.00 0.2432
778.10 0.2431
778.20 0.2429
778.30 0.2428
778.40 0.2427
778.50 0.2426
778.60 0.2425
778.70 0.2424
778.80 0.2423
778.90 0.2422
779.00 0.2421
779.10 0.2419
779.20 0.2418
779.30 0.2417
779.40 0.2416
779.50 0.2415
779.60 0.2414
779.70 0.2413
779.80 0.2412
779.90 0.2411
780.00 0.241
780.10 0.2408
780.20 0.2407
780.30 0.2406
780.40 0.2405
780.50 0.2404
780.60 0.2403
780.70 0.2402
780.80 0.2401
780.90 0.24
781.00 0.2399
781.10 0.2398
781.20 0.2397
781.30 0.2395
781.40 0.2394
781.50 0.2393
781.60 0.2392
781.70 0.2391
781.80 0.239
781.90 0.2389
782.00 0.2388
782.10 0.2387
782.20 0.2386
782.30 0.2385
782.40 0.2384
782.50 0.2382
782.60 0.2381
782.70 0.238
782.80 0.2379
782.90 0.2378
783.00 0.2377
783.10 0.2376
783.20 0.2375
783.30 0.2374
783.40 0.2373
783.50 0.2372
783.60 0.2371
783.70 0.237
783.80 0.2369
783.90 0.2367
784.00 0.2366
784.10 0.2365
784.20 0.2364
784.30 0.2363
784.40 0.2362
784.50 0.2361
784.60 0.236
784.70 0.2359
784.80 0.2358
784.90 0.2357
785.00 0.2356
785.10 0.2355
785.20 0.2354
785.30 0.2353
785.40 0.2351
785.50 0.235
785.60 0.2349
785.70 0.2348
785.80 0.2347
785.90 0.2346
786.00 0.2345
786.10 0.2344
786.20 0.2343
786.30 0.2342
786.40 0.2341
786.50 0.234
786.60 0.2339
786.70 0.2338
786.80 0.2337
786.90 0.2336
787.00 0.2335
787.10 0.2333
787.20 0.2332
787.30 0.2331
787.40 0.233
787.50 0.2329
787.60 0.2328
787.70 0.2327
787.80 0.2326
787.90 0.2325
788.00 0.2324
788.10 0.2323
788.20 0.2322
788.30 0.2321
788.40 0.232
788.50 0.2319
788.60 0.2318
788.70 0.2317
788.80 0.2316
788.90 0.2315
789.00 0.2314
789.10 0.2312
789.20 0.2311
789.30 0.231
789.40 0.2309
789.50 0.2308
789.60 0.2307
789.70 0.2306
789.80 0.2305
789.90 0.2304
790.00 0.2303
790.10 0.2302
790.20 0.2301
790.30 0.23
790.40 0.2299
790.50 0.2298
790.60 0.2297
790.70 0.2296
790.80 0.2295
790.90 0.2294
791.00 0.2293
791.10 0.2292
791.20 0.2291
791.30 0.229
791.40 0.2289
791.50 0.2288
791.60 0.2287
791.70 0.2286
791.80 0.2285
791.90 0.2284
792.00 0.2283
792.10 0.2282
792.20 0.2281
792.30 0.228
792.40 0.2279
792.50 0.2278
792.60 0.2277
792.70 0.2276
792.80 0.2275
792.90 0.2273
793.00 0.2272
793.10 0.2271
793.20 0.227
793.30 0.2269
793.40 0.2268
793.50 0.2267
793.60 0.2266
793.70 0.2265
793.80 0.2264
793.90 0.2263
794.00 0.2262
794.10 0.2261
794.20 0.226
794.30 0.2259
794.40 0.2258
794.50 0.2257
794.60 0.2256
794.70 0.2255
794.80 0.2254
794.90 0.2253
795.00 0.2252
795.10 0.2251
795.20 0.225
795.30 0.2249
795.40 0.2248
795.50 0.2247
795.60 0.2246
795.70 0.2245
795.80 0.2244
795.90 0.2243
796.00 0.2242
796.10 0.2241
796.20 0.224
796.30 0.2239
796.40 0.2238
796.50 0.2237
796.60 0.2236
796.70 0.2235
796.80 0.2234
796.90 0.2233
797.00 0.2232
797.10 0.2231
797.20 0.223
797.30 0.2229
797.40 0.2228
797.50 0.2227
797.60 0.2226
797.70 0.2225
797.80 0.2224
797.90 0.2223
798.00 0.2222
798.10 0.2221
798.20 0.222
798.30 0.2219
798.40 0.2218
798.50 0.2217
798.60 0.2216
798.70 0.2215
798.80 0.2214
798.90 0.2213
799.00 0.2212
799.10 0.2211
799.20 0.221
799.30 0.2209
799.40 0.2208
799.50 0.2207
799.60 0.2206
799.70 0.2205
799.80 0.2205
799.90 0.2204
800.00 0.2203
800.10 0.2202
800.20 0.2201
800.30 0.22
800.40 0.2199
800.50 0.2198
800.60 0.2197
800.70 0.2196
800.80 0.2195
800.90 0.2194
801.00 0.2193
801.10 0.2192
801.20 0.2191
801.30 0.219
801.40 0.2189
801.50 0.2188
801.60 0.2187
801.70 0.2186
801.80 0.2185
801.90 0.2184
802.00 0.2183
802.10 0.2182
802.20 0.2181
802.30 0.218
802.40 0.2179
802.50 0.2178
802.60 0.2177
802.70 0.2176
802.80 0.2175
802.90 0.2175
803.00 0.2174
803.10 0.2173
803.20 0.2172
803.30 0.2171
803.40 0.217
803.50 0.2169
803.60 0.2168
803.70 0.2167
803.80 0.2166
803.90 0.2165
804.00 0.2164
804.10 0.2163
804.20 0.2162
804.30 0.2161
804.40 0.216
804.50 0.2159
804.60 0.2158
804.70 0.2157
804.80 0.2156
804.90 0.2155
805.00 0.2154
805.10 0.2154
805.20 0.2153
805.30 0.2152
805.40 0.2151
805.50 0.215
805.60 0.2149
805.70 0.2148
805.80 0.2147
805.90 0.2146
806.00 0.2145
806.10 0.2144
806.20 0.2143
806.30 0.2142
806.40 0.2141
806.50 0.214
806.60 0.2139
806.70 0.2138
806.80 0.2137
806.90 0.2136
807.00 0.2136
807.10 0.2135
807.20 0.2134
807.30 0.2133
807.40 0.2132
807.50 0.2131
807.60 0.213
807.70 0.2129
807.80 0.2128
807.90 0.2127
808.00 0.2126
808.10 0.2125
808.20 0.2124
808.30 0.2123
808.40 0.2122
808.50 0.2121
808.60 0.212
808.70 0.212
808.80 0.2119
808.90 0.2118
809.00 0.2117
809.10 0.2116
809.20 0.2115
809.30 0.2114
809.40 0.2113
809.50 0.2112
809.60 0.2111
809.70 0.211
809.80 0.2109
809.90 0.2108
810.00 0.2107
810.10 0.2106
810.20 0.2106
810.30 0.2105
810.40 0.2104
810.50 0.2103
810.60 0.2102
810.70 0.2101
810.80 0.21
810.90 0.2099
811.00 0.2098
811.10 0.2097
811.20 0.2096
811.30 0.2095
811.40 0.2095
811.50 0.2094
811.60 0.2093
811.70 0.2092
811.80 0.2091
811.90 0.209
812.00 0.2089
812.10 0.2088
812.20 0.2087
812.30 0.2086
812.40 0.2085
812.50 0.2085
812.60 0.2084
812.70 0.2083
812.80 0.2082
812.90 0.2081
813.00 0.208
813.10 0.2079
813.20 0.2078
813.30 0.2077
813.40 0.2076
813.50 0.2075
813.60 0.2075
813.70 0.2074
813.80 0.2073
813.90 0.2072
814.00 0.2071
814.10 0.207
814.20 0.2069
814.30 0.2068
814.40 0.2067
814.50 0.2066
814.60 0.2065
814.70 0.2065
814.80 0.2064
814.90 0.2063
815.00 0.2062
815.10 0.2061
815.20 0.206
815.30 0.2059
815.40 0.2058
815.50 0.2057
815.60 0.2056
815.70 0.2056
815.80 0.2055
815.90 0.2054
816.00 0.2053
816.10 0.2052
816.20 0.2051
816.30 0.205
816.40 0.2049
816.50 0.2048
816.60 0.2048
816.70 0.2047
816.80 0.2046
816.90 0.2045
817.00 0.2044
817.10 0.2043
817.20 0.2042
817.30 0.2041
817.40 0.204
817.50 0.2039
817.60 0.2039
817.70 0.2038
817.80 0.2037
817.90 0.2036
818.00 0.2035
818.10 0.2034
818.20 0.2033
818.30 0.2032
818.40 0.2031
818.50 0.2031
818.60 0.203
818.70 0.2029
818.80 0.2028
818.90 0.2027
819.00 0.2026
819.10 0.2025
819.20 0.2024
819.30 0.2024
819.40 0.2023
819.50 0.2022
819.60 0.2021
819.70 0.202
819.80 0.2019
819.90 0.2018
820.00 0.2017
820.10 0.2017
820.20 0.2016
820.30 0.2015
820.40 0.2014
820.50 0.2013
820.60 0.2012
820.70 0.2011
820.80 0.2011
820.90 0.201
821.00 0.2009
821.10 0.2008
821.20 0.2007
821.30 0.2006
821.40 0.2005
821.50 0.2005
821.60 0.2004
821.70 0.2003
821.80 0.2002
821.90 0.2001
822.00 0.2
822.10 0.1999
822.20 0.1998
822.30 0.1998
822.40 0.1997
822.50 0.1996
822.60 0.1995
822.70 0.1994
822.80 0.1993
822.90 0.1992
823.00 0.1992
823.10 0.1991
823.20 0.199
823.30 0.1989
823.40 0.1988
823.50 0.1987
823.60 0.1986
823.70 0.1986
823.80 0.1985
823.90 0.1984
824.00 0.1983
824.10 0.1982
824.20 0.1981
824.30 0.198
824.40 0.198
824.50 0.1979
824.60 0.1978
824.70 0.1977
824.80 0.1976
824.90 0.1975
825.00 0.1974
825.10 0.1974
825.20 0.1973
825.30 0.1972
825.40 0.1971
825.50 0.197
825.60 0.1969
825.70 0.1968
825.80 0.1968
825.90 0.1967
826.00 0.1966
826.10 0.1965
826.20 0.1964
826.30 0.1963
826.40 0.1962
826.50 0.1962
826.60 0.1961
826.70 0.196
826.80 0.1959
826.90 0.1958
827.00 0.1957
827.10 0.1957
827.20 0.1956
827.30 0.1955
827.40 0.1954
827.50 0.1953
827.60 0.1952
827.70 0.1952
827.80 0.1951
827.90 0.195
828.00 0.1949
828.10 0.1948
828.20 0.1947
828.30 0.1946
828.40 0.1946
828.50 0.1945
828.60 0.1944
828.70 0.1943
828.80 0.1942
828.90 0.1941
829.00 0.1941
829.10 0.194
829.20 0.1939
829.30 0.1938
829.40 0.1937
829.50 0.1936
829.60 0.1936
829.70 0.1935
829.80 0.1934
829.90 0.1933
830.00 0.1932
830.10 0.1931
830.20 0.1931
830.30 0.193
830.40 0.1929
830.50 0.1928
830.60 0.1927
830.70 0.1926
830.80 0.1926
830.90 0.1925
831.00 0.1924
831.10 0.1923
831.20 0.1922
831.30 0.1922
831.40 0.1921
831.50 0.192
831.60 0.1919
831.70 0.1918
831.80 0.1917
831.90 0.1917
832.00 0.1916
832.10 0.1915
832.20 0.1914
832.30 0.1913
832.40 0.1912
832.50 0.1912
832.60 0.1911
832.70 0.191
832.80 0.1909
832.90 0.1908
833.00 0.1908
833.10 0.1907
833.20 0.1906
833.30 0.1905
833.40 0.1904
833.50 0.1903
833.60 0.1903
833.70 0.1902
833.80 0.1901
833.90 0.19
834.00 0.1899
834.10 0.1899
834.20 0.1898
834.30 0.1897
834.40 0.1896
834.50 0.1895
834.60 0.1895
834.70 0.1894
834.80 0.1893
834.90 0.1892
835.00 0.1891
835.10 0.189
835.20 0.189
835.30 0.1889
835.40 0.1888
835.50 0.1887
835.60 0.1886
835.70 0.1886
835.80 0.1885
835.90 0.1884
836.00 0.1883
836.10 0.1882
836.20 0.1882
836.30 0.1881
836.40 0.188
836.50 0.1879
836.60 0.1878
836.70 0.1878
836.80 0.1877
836.90 0.1876
837.00 0.1875
837.10 0.1874
837.20 0.1874
837.30 0.1873
837.40 0.1872
837.50 0.1871
837.60 0.187
837.70 0.187
837.80 0.1869
837.90 0.1868
838.00 0.1867
838.10 0.1866
838.20 0.1866
838.30 0.1865
838.40 0.1864
838.50 0.1863
838.60 0.1862
838.70 0.1862
838.80 0.1861
838.90 0.186
839.00 0.1859
839.10 0.1859
839.20 0.1858
839.30 0.1857
839.40 0.1856
839.50 0.1855
839.60 0.1855
839.70 0.1854
839.80 0.1853
839.90 0.1852
840.00 0.1851
840.10 0.1851
840.20 0.185
840.30 0.1849
840.40 0.1848
840.50 0.1847
840.60 0.1847
840.70 0.1846
840.80 0.1845
840.90 0.1844
841.00 0.1844
841.10 0.1843
841.20 0.1842
841.30 0.1841
841.40 0.184
841.50 0.184
841.60 0.1839
841.70 0.1838
841.80 0.1837
841.90 0.1836
842.00 0.1836
842.10 0.1835
842.20 0.1834
842.30 0.1833
842.40 0.1833
842.50 0.1832
842.60 0.1831
842.70 0.183
842.80 0.183
842.90 0.1829
843.00 0.1828
843.10 0.1827
843.20 0.1826
843.30 0.1826
843.40 0.1825
843.50 0.1824
843.60 0.1823
843.70 0.1823
843.80 0.1822
843.90 0.1821
844.00 0.182
844.10 0.1819
844.20 0.1819
844.30 0.1818
844.40 0.1817
844.50 0.1816
844.60 0.1816
844.70 0.1815
844.80 0.1814
844.90 0.1813
845.00 0.1813
845.10 0.1812
845.20 0.1811
845.30 0.181
845.40 0.181
845.50 0.1809
845.60 0.1808
845.70 0.1807
845.80 0.1806
845.90 0.1806
846.00 0.1805
846.10 0.1804
846.20 0.1803
846.30 0.1803
846.40 0.1802
846.50 0.1801
846.60 0.18
846.70 0.18
846.80 0.1799
846.90 0.1798
847.00 0.1797
847.10 0.1797
847.20 0.1796
847.30 0.1795
847.40 0.1794
847.50 0.1794
847.60 0.1793
847.70 0.1792
847.80 0.1791
847.90 0.1791
848.00 0.179
848.10 0.1789
848.20 0.1788
848.30 0.1788
848.40 0.1787
848.50 0.1786
848.60 0.1785
848.70 0.1785
848.80 0.1784
848.90 0.1783
849.00 0.1782
849.10 0.1782
849.20 0.1781
849.30 0.178
849.40 0.1779
849.50 0.1779
849.60 0.1778
849.70 0.1777
849.80 0.1776
849.90 0.1776
850.00 0.1775
850.10 0.1774
850.20 0.1773
850.30 0.1773
850.40 0.1772
850.50 0.1771
850.60 0.177
850.70 0.177
850.80 0.1769
850.90 0.1768
851.00 0.1767
851.10 0.1767
851.20 0.1766
851.30 0.1765
851.40 0.1764
851.50 0.1764
851.60 0.1763
851.70 0.1762
851.80 0.1761
851.90 0.1761
852.00 0.176
852.10 0.1759
852.20 0.1759
852.30 0.1758
852.40 0.1757
852.50 0.1756
852.60 0.1756
852.70 0.1755
852.80 0.1754
852.90 0.1753
853.00 0.1753
853.10 0.1752
853.20 0.1751
853.30 0.175
853.40 0.175
853.50 0.1749
853.60 0.1748
853.70 0.1748
853.80 0.1747
853.90 0.1746
854.00 0.1745
854.10 0.1745
854.20 0.1744
854.30 0.1743
854.40 0.1742
854.50 0.1742
854.60 0.1741
854.70 0.174
854.80 0.174
854.90 0.1739
855.00 0.1738
855.10 0.1737
855.20 0.1737
855.30 0.1736
855.40 0.1735
855.50 0.1735
855.60 0.1734
855.70 0.1733
855.80 0.1732
855.90 0.1732
856.00 0.1731
856.10 0.173
856.20 0.1729
856.30 0.1729
856.40 0.1728
856.50 0.1727
856.60 0.1727
856.70 0.1726
856.80 0.1725
856.90 0.1724
857.00 0.1724
857.10 0.1723
857.20 0.1722
857.30 0.1722
857.40 0.1721
857.50 0.172
857.60 0.1719
857.70 0.1719
857.80 0.1718
857.90 0.1717
858.00 0.1717
858.10 0.1716
858.20 0.1715
858.30 0.1714
858.40 0.1714
858.50 0.1713
858.60 0.1712
858.70 0.1712
858.80 0.1711
858.90 0.171
859.00 0.171
859.10 0.1709
859.20 0.1708
859.30 0.1707
859.40 0.1707
859.50 0.1706
859.60 0.1705
859.70 0.1705
859.80 0.1704
859.90 0.1703
860.00 0.1703
860.10 0.1702
860.20 0.1701
860.30 0.17
860.40 0.17
860.50 0.1699
860.60 0.1698
860.70 0.1698
860.80 0.1697
860.90 0.1696
861.00 0.1696
861.10 0.1695
861.20 0.1694
861.30 0.1693
861.40 0.1693
861.50 0.1692
861.60 0.1691
861.70 0.1691
861.80 0.169
861.90 0.1689
862.00 0.1689
862.10 0.1688
862.20 0.1687
862.30 0.1686
862.40 0.1686
862.50 0.1685
862.60 0.1684
862.70 0.1684
862.80 0.1683
862.90 0.1682
863.00 0.1682
863.10 0.1681
863.20 0.168
863.30 0.168
863.40 0.1679
863.50 0.1678
863.60 0.1678
863.70 0.1677
863.80 0.1676
863.90 0.1675
864.00 0.1675
864.10 0.1674
864.20 0.1673
864.30 0.1673
864.40 0.1672
864.50 0.1671
864.60 0.1671
864.70 0.167
864.80 0.1669
864.90 0.1669
865.00 0.1668
865.10 0.1667
865.20 0.1667
865.30 0.1666
865.40 0.1665
865.50 0.1665
865.60 0.1664
865.70 0.1663
865.80 0.1663
865.90 0.1662
866.00 0.1661
866.10 0.1661
866.20 0.166
866.30 0.1659
866.40 0.1658
866.50 0.1658
866.60 0.1657
866.70 0.1656
866.80 0.1656
866.90 0.1655
867.00 0.1654
867.10 0.1654
867.20 0.1653
867.30 0.1652
867.40 0.1652
867.50 0.1651
867.60 0.165
867.70 0.165
867.80 0.1649
867.90 0.1648
868.00 0.1648
868.10 0.1647
868.20 0.1646
868.30 0.1646
868.40 0.1645
868.50 0.1644
868.60 0.1644
868.70 0.1643
868.80 0.1642
868.90 0.1642
869.00 0.1641
869.10 0.1641
869.20 0.164
869.30 0.1639
869.40 0.1639
869.50 0.1638
869.60 0.1637
869.70 0.1637
869.80 0.1636
869.90 0.1635
870.00 0.1635
870.10 0.1634
870.20 0.1633
870.30 0.1633
870.40 0.1632
870.50 0.1631
870.60 0.1631
870.70 0.163
870.80 0.1629
870.90 0.1629
871.00 0.1628
871.10 0.1627
871.20 0.1627
871.30 0.1626
871.40 0.1625
871.50 0.1625
871.60 0.1624
871.70 0.1623
871.80 0.1623
871.90 0.1622
872.00 0.1622
872.10 0.1621
872.20 0.162
872.30 0.162
872.40 0.1619
872.50 0.1618
872.60 0.1618
872.70 0.1617
872.80 0.1616
872.90 0.1616
873.00 0.1615
873.10 0.1614
873.20 0.1614
873.30 0.1613
873.40 0.1613
873.50 0.1612
873.60 0.1611
873.70 0.1611
873.80 0.161
873.90 0.1609
874.00 0.1609
874.10 0.1608
874.20 0.1607
874.30 0.1607
874.40 0.1606
874.50 0.1605
874.60 0.1605
874.70 0.1604
874.80 0.1604
874.90 0.1603
875.00 0.1602
875.10 0.1602
875.20 0.1601
875.30 0.16
875.40 0.16
875.50 0.1599
875.60 0.1598
875.70 0.1598
875.80 0.1597
875.90 0.1597
876.00 0.1596
876.10 0.1595
876.20 0.1595
876.30 0.1594
876.40 0.1593
876.50 0.1593
876.60 0.1592
876.70 0.1591
876.80 0.1591
876.90 0.159
877.00 0.159
877.10 0.1589
877.20 0.1588
877.30 0.1588
877.40 0.1587
877.50 0.1587
877.60 0.1586
877.70 0.1585
877.80 0.1585
877.90 0.1584
878.00 0.1583
878.10 0.1583
878.20 0.1582
878.30 0.1582
878.40 0.1581
878.50 0.158
878.60 0.158
878.70 0.1579
878.80 0.1579
878.90 0.1578
879.00 0.1577
879.10 0.1577
879.20 0.1576
879.30 0.1575
879.40 0.1575
879.50 0.1574
879.60 0.1574
879.70 0.1573
879.80 0.1572
879.90 0.1572
880.00 0.1571
880.10 0.1571
880.20 0.157
880.30 0.1569
880.40 0.1569
880.50 0.1568
880.60 0.1568
880.70 0.1567
880.80 0.1566
880.90 0.1566
881.00 0.1565
881.10 0.1565
881.20 0.1564
881.30 0.1563
881.40 0.1563
881.50 0.1562
881.60 0.1561
881.70 0.1561
881.80 0.156
881.90 0.156
882.00 0.1559
882.10 0.1558
882.20 0.1558
882.30 0.1557
882.40 0.1557
882.50 0.1556
882.60 0.1555
882.70 0.1555
882.80 0.1554
882.90 0.1554
883.00 0.1553
883.10 0.1552
883.20 0.1552
883.30 0.1551
883.40 0.1551
883.50 0.155
883.60 0.1549
883.70 0.1549
883.80 0.1548
883.90 0.1547
884.00 0.1547
884.10 0.1546
884.20 0.1546
884.30 0.1545
884.40 0.1544
884.50 0.1544
884.60 0.1543
884.70 0.1543
884.80 0.1542
884.90 0.1541
885.00 0.1541
885.10 0.154
885.20 0.154
885.30 0.1539
885.40 0.1538
885.50 0.1538
885.60 0.1537
885.70 0.1537
885.80 0.1536
885.90 0.1535
886.00 0.1535
886.10 0.1534
886.20 0.1534
886.30 0.1533
886.40 0.1532
886.50 0.1532
886.60 0.1531
886.70 0.1531
886.80 0.153
886.90 0.1529
887.00 0.1529
887.10 0.1528
887.20 0.1528
887.30 0.1527
887.40 0.1527
887.50 0.1526
887.60 0.1525
887.70 0.1525
887.80 0.1524
887.90 0.1524
888.00 0.1523
888.10 0.1523
888.20 0.1522
888.30 0.1522
888.40 0.1521
888.50 0.152
888.60 0.152
888.70 0.1519
888.80 0.1519
888.90 0.1518
889.00 0.1518
889.10 0.1517
889.20 0.1517
889.30 0.1516
889.40 0.1515
889.50 0.1515
889.60 0.1514
889.70 0.1514
889.80 0.1513
889.90 0.1513
890.00 0.1512
890.10 0.1512
890.20 0.1511
890.30 0.151
890.40 0.151
890.50 0.1509
890.60 0.1509
890.70 0.1508
890.80 0.1508
890.90 0.1507
891.00 0.1507
891.10 0.1506
891.20 0.1506
891.30 0.1505
891.40 0.1504
891.50 0.1504
891.60 0.1503
891.70 0.1503
891.80 0.1502
891.90 0.1502
892.00 0.1501
892.10 0.1501
892.20 0.15
892.30 0.1499
892.40 0.1499
892.50 0.1498
892.60 0.1498
892.70 0.1497
892.80 0.1497
892.90 0.1496
893.00 0.1496
893.10 0.1495
893.20 0.1494
893.30 0.1494
893.40 0.1493
893.50 0.1493
893.60 0.1492
893.70 0.1492
893.80 0.1491
893.90 0.1491
894.00 0.149
894.10 0.1489
894.20 0.1489
894.30 0.1488
894.40 0.1488
894.50 0.1487
894.60 0.1487
894.70 0.1486
894.80 0.1486
894.90 0.1485
895.00 0.1485
895.10 0.1484
895.20 0.1483
895.30 0.1483
895.40 0.1482
895.50 0.1482
895.60 0.1481
895.70 0.1481
895.80 0.148
895.90 0.148
896.00 0.1479
896.10 0.1479
896.20 0.1478
896.30 0.1477
896.40 0.1477
896.50 0.1476
896.60 0.1476
896.70 0.1475
896.80 0.1475
896.90 0.1474
897.00 0.1474
897.10 0.1473
897.20 0.1472
897.30 0.1472
897.40 0.1471
897.50 0.1471
897.60 0.147
897.70 0.1469
897.80 0.1469
897.90 0.1468
898.00 0.1468
898.10 0.1467
898.20 0.1466
898.30 0.1466
898.40 0.1465
898.50 0.1465
898.60 0.1464
898.70 0.1463
898.80 0.1463
898.90 0.1462
899.00 0.1462
899.10 0.1461
899.20 0.1461
899.30 0.146
899.40 0.1459
899.50 0.1459
899.60 0.1458
899.70 0.1458
899.80 0.1457
899.90 0.1456
900.00 0.1456
900.10 0.1455
900.20 0.1455
900.30 0.1454
900.40 0.1453
900.50 0.1453
900.60 0.1452
900.70 0.1452
900.80 0.1451
900.90 0.1451
901.00 0.145
901.10 0.1449
901.20 0.1449
901.30 0.1448
901.40 0.1448
901.50 0.1447
901.60 0.1446
901.70 0.1446
901.80 0.1445
901.90 0.1445
902.00 0.1444
902.10 0.1444
902.20 0.1443
902.30 0.1443
902.40 0.1442
902.50 0.1442
902.60 0.1441
902.70 0.1441
902.80 0.144
902.90 0.144
903.00 0.1439
903.10 0.1439
903.20 0.1438
903.30 0.1438
903.40 0.1437
903.50 0.1437
903.60 0.1437
903.70 0.1436
903.80 0.1436
903.90 0.1435
904.00 0.1435
904.10 0.1434
904.20 0.1434
904.30 0.1433
904.40 0.1433
904.50 0.1432
904.60 0.1432
904.70 0.1431
904.80 0.1431
904.90 0.143
905.00 0.143
905.10 0.143
905.20 0.1429
905.30 0.1429
905.40 0.1428
905.50 0.1428
905.60 0.1427
905.70 0.1427
905.80 0.1426
905.90 0.1426
906.00 0.1425
906.10 0.1425
906.20 0.1424
906.30 0.1424
906.40 0.1423
906.50 0.1423
906.60 0.1423
906.70 0.1422
906.80 0.1422
906.90 0.1421
907.00 0.1421
907.10 0.142
907.20 0.142
907.30 0.1419
907.40 0.1419
907.50 0.1418
907.60 0.1418
907.70 0.1417
907.80 0.1417
907.90 0.1416
908.00 0.1416
908.10 0.1415
908.20 0.1415
908.30 0.1414
908.40 0.1414
908.50 0.1414
908.60 0.1413
908.70 0.1413
908.80 0.1412
908.90 0.1412
909.00 0.1411
909.10 0.1411
909.20 0.141
909.30 0.141
909.40 0.1409
909.50 0.1409
909.60 0.1408
909.70 0.1408
909.80 0.1407
909.90 0.1407
910.00 0.1406
910.10 0.1406
910.20 0.1405
910.30 0.1405
910.40 0.1404
910.50 0.1404
910.60 0.1403
910.70 0.1403
910.80 0.1403
910.90 0.1402
911.00 0.1402
911.10 0.1401
911.20 0.1401
911.30 0.14
911.40 0.14
911.50 0.1399
911.60 0.1399
911.70 0.1398
911.80 0.1398
911.90 0.1397
912.00 0.1397
912.10 0.1396
912.20 0.1396
912.30 0.1395
912.40 0.1395
912.50 0.1394
912.60 0.1394
912.70 0.1393
912.80 0.1393
912.90 0.1392
913.00 0.1392
913.10 0.1391
913.20 0.1391
913.30 0.139
913.40 0.139
913.50 0.1389
913.60 0.1389
913.70 0.1388
913.80 0.1388
913.90 0.1387
914.00 0.1387
914.10 0.1386
914.20 0.1386
914.30 0.1385
914.40 0.1385
914.50 0.1384
914.60 0.1384
914.70 0.1383
914.80 0.1383
914.90 0.1382
915.00 0.1382
915.10 0.1381
915.20 0.1381
915.30 0.138
915.40 0.138
915.50 0.1379
915.60 0.1379
915.70 0.1378
915.80 0.1378
915.90 0.1377
916.00 0.1377
916.10 0.1376
916.20 0.1376
916.30 0.1375
916.40 0.1375
916.50 0.1374
916.60 0.1374
916.70 0.1373
916.80 0.1373
916.90 0.1372
917.00 0.1372
917.10 0.1371
917.20 0.1371
917.30 0.137
917.40 0.1369
917.50 0.1369
917.60 0.1368
917.70 0.1368
917.80 0.1367
917.90 0.1367
918.00 0.1366
918.10 0.1366
918.20 0.1365
918.30 0.1365
918.40 0.1364
918.50 0.1363
918.60 0.1363
918.70 0.1362
918.80 0.1362
918.90 0.1361
919.00 0.1361
919.10 0.136
919.20 0.136
919.30 0.1359
919.40 0.1359
919.50 0.1358
919.60 0.1357
919.70 0.1357
919.80 0.1356
919.90 0.1356
920.00 0.1355
920.10 0.1355
920.20 0.1354
920.30 0.1354
920.40 0.1353
920.50 0.1353
920.60 0.1352
920.70 0.1351
920.80 0.1351
920.90 0.135
921.00 0.135
921.10 0.1349
921.20 0.1349
921.30 0.1348
921.40 0.1348
921.50 0.1347
921.60 0.1347
921.70 0.1346
921.80 0.1346
921.90 0.1345
922.00 0.1344
922.10 0.1344
922.20 0.1343
922.30 0.1343
922.40 0.1342
922.50 0.1342
922.60 0.1341
922.70 0.1341
922.80 0.134
922.90 0.134
923.00 0.1339
923.10 0.1339
923.20 0.1338
923.30 0.1337
923.40 0.1337
923.50 0.1336
923.60 0.1336
923.70 0.1335
923.80 0.1335
923.90 0.1334
924.00 0.1334
924.10 0.1333
924.20 0.1333
924.30 0.1332
924.40 0.1331
924.50 0.1331
924.60 0.133
924.70 0.133
924.80 0.1329
924.90 0.1329
925.00 0.1328
925.10 0.1328
925.20 0.1327
925.30 0.1327
925.40 0.1326
925.50 0.1326
925.60 0.1325
925.70 0.1324
925.80 0.1324
925.90 0.1323
926.00 0.1323
926.10 0.1322
926.20 0.1322
926.30 0.1321
926.40 0.1321
926.50 0.132
926.60 0.132
926.70 0.1319
926.80 0.1319
926.90 0.1318
927.00 0.1318
927.10 0.1317
927.20 0.1317
927.30 0.1317
927.40 0.1316
927.50 0.1316
927.60 0.1316
927.70 0.1315
927.80 0.1315
927.90 0.1315
928.00 0.1314
928.10 0.1314
928.20 0.1314
928.30 0.1313
928.40 0.1313
928.50 0.1313
928.60 0.1313
928.70 0.1312
928.80 0.1312
928.90 0.1312
929.00 0.1311
929.10 0.1311
929.20 0.1311
929.30 0.131
929.40 0.131
929.50 0.131
929.60 0.1309
929.70 0.1309
929.80 0.1309
929.90 0.1309
930.00 0.1308
930.10 0.1308
930.20 0.1308
930.30 0.1307
930.40 0.1307
930.50 0.1307
930.60 0.1306
930.70 0.1306
930.80 0.1306
930.90 0.1305
931.00 0.1305
931.10 0.1305
931.20 0.1304
931.30 0.1304
931.40 0.1304
931.50 0.1304
931.60 0.1303
931.70 0.1303
931.80 0.1303
931.90 0.1302
932.00 0.1302
932.10 0.1302
932.20 0.1301
932.30 0.1301
932.40 0.1301
932.50 0.13
932.60 0.13
932.70 0.1299
932.80 0.1299
932.90 0.1299
933.00 0.1298
933.10 0.1298
933.20 0.1298
933.30 0.1297
933.40 0.1297
933.50 0.1296
933.60 0.1296
933.70 0.1296
933.80 0.1295
933.90 0.1295
934.00 0.1295
934.10 0.1294
934.20 0.1294
934.30 0.1293
934.40 0.1293
934.50 0.1293
934.60 0.1292
934.70 0.1292
934.80 0.1291
934.90 0.1291
935.00 0.1291
935.10 0.129
935.20 0.129
935.30 0.1289
935.40 0.1289
935.50 0.1289
935.60 0.1288
935.70 0.1288
935.80 0.1287
935.90 0.1287
936.00 0.1287
936.10 0.1286
936.20 0.1286
936.30 0.1285
936.40 0.1285
936.50 0.1285
936.60 0.1284
936.70 0.1284
936.80 0.1283
936.90 0.1283
937.00 0.1283
937.10 0.1282
937.20 0.1282
937.30 0.1281
937.40 0.1281
937.50 0.1281
937.60 0.128
937.70 0.128
937.80 0.1279
937.90 0.1279
938.00 0.1278
938.10 0.1278
938.20 0.1278
938.30 0.1277
938.40 0.1277
938.50 0.1276
938.60 0.1276
938.70 0.1275
938.80 0.1275
938.90 0.1275
939.00 0.1274
939.10 0.1274
939.20 0.1273
939.30 0.1273
939.40 0.1272
939.50 0.1272
939.60 0.1272
939.70 0.1271
939.80 0.1271
939.90 0.127
940.00 0.127
940.10 0.1269
940.20 0.1269
940.30 0.1269
940.40 0.1268
940.50 0.1268
940.60 0.1267
940.70 0.1267
940.80 0.1266
940.90 0.1266
941.00 0.1265
941.10 0.1265
941.20 0.1264
941.30 0.1264
941.40 0.1264
941.50 0.1263
941.60 0.1263
941.70 0.1262
941.80 0.1262
941.90 0.1261
942.00 0.1261
942.10 0.126
942.20 0.126
942.30 0.126
942.40 0.1259
942.50 0.1259
942.60 0.1258
942.70 0.1258
942.80 0.1257
942.90 0.1257
943.00 0.1256
943.10 0.1256
943.20 0.1255
943.30 0.1255
943.40 0.1254
943.50 0.1254
943.60 0.1253
943.70 0.1253
943.80 0.1252
943.90 0.1252
944.00 0.1251
944.10 0.1251
944.20 0.125
944.30 0.125
944.40 0.1249
944.50 0.1249
944.60 0.1248
944.70 0.1248
944.80 0.1247
944.90 0.1247
945.00 0.1246
945.10 0.1246
945.20 0.1245
945.30 0.1245
945.40 0.1244
945.50 0.1243
945.60 0.1243
945.70 0.1242
945.80 0.1242
945.90 0.1241
946.00 0.1241
946.10 0.124
946.20 0.1239
946.30 0.1239
946.40 0.1238
946.50 0.1238
946.60 0.1237
946.70 0.1237
946.80 0.1236
946.90 0.1235
947.00 0.1235
947.10 0.1234
947.20 0.1234
947.30 0.1233
947.40 0.1232
947.50 0.1232
947.60 0.1231
947.70 0.123
947.80 0.123
947.90 0.1229
948.00 0.1228
948.10 0.1228
948.20 0.1227
948.30 0.1226
948.40 0.1226
948.50 0.1225
948.60 0.1224
948.70 0.1223
948.80 0.1223
948.90 0.1222
949.00 0.1221
949.10 0.1221
949.20 0.122
949.30 0.1219
949.40 0.1219
949.50 0.1218
949.60 0.1217
949.70 0.1217
949.80 0.1216
949.90 0.1215
950.00 0.1214
950.10 0.1214
950.20 0.1213
950.30 0.1212
950.40 0.1211
950.50 0.1211
950.60 0.121
950.70 0.1209
950.80 0.1209
950.90 0.1208
951.00 0.1207
951.10 0.1206
951.20 0.1206
951.30 0.1205
951.40 0.1204
951.50 0.1204
951.60 0.1203
951.70 0.1202
951.80 0.1202
951.90 0.1201
952.00 0.12
952.10 0.12
952.20 0.1199
952.30 0.1199
952.40 0.1198
952.50 0.1198
952.60 0.1197
952.70 0.1197
952.80 0.1196
952.90 0.1196
953.00 0.1196
953.10 0.1195
953.20 0.1195
953.30 0.1195
953.40 0.1194
953.50 0.1194
953.60 0.1195
953.70 0.1195
953.80 0.1196
953.90 0.1196
954.00 0.1197
954.10 0.1198
954.20 0.1199
954.30 0.1187
954.40 0.1176
954.50 0.1175
954.60 0.1173
954.70 0.1171
954.80 0.117
954.90 0.1168
955.00 0.1167
955.10 0.1165
955.20 0.1164
955.30 0.1162
955.40 0.1161
955.50 0.116
955.60 0.1158
955.70 0.1157
955.80 0.1155
955.90 0.1155
956.00 0.1154
956.10 0.1154
956.20 0.1153
956.30 0.1152
956.40 0.1152
956.50 0.1151
956.60 0.1151
956.70 0.115
956.80 0.115
956.90 0.1149
957.00 0.1149
957.10 0.1148
957.20 0.1148
957.30 0.1148
957.40 0.1148
957.50 0.1148
957.60 0.1147
957.70 0.1147
957.80 0.1147
957.90 0.1147
958.00 0.1147
958.10 0.1147
958.20 0.1147
958.30 0.1147
958.40 0.1147
958.50 0.1146
958.60 0.1146
958.70 0.1146
958.80 0.1146
958.90 0.1146
959.00 0.1146
959.10 0.1146
959.20 0.1146
959.30 0.1146
959.40 0.1146
959.50 0.1146
959.60 0.1146
959.70 0.1146
959.80 0.1146
959.90 0.1145
960.00 0.1145
960.10 0.1145
960.20 0.1145
960.30 0.1145
960.40 0.1145
960.50 0.1145
960.60 0.1145
960.70 0.1145
960.80 0.1145
960.90 0.1145
961.00 0.1145
961.10 0.1145
961.20 0.1145
961.30 0.1145
961.40 0.1145
961.50 0.1145
961.60 0.1145
961.70 0.1145
961.80 0.1145
961.90 0.1145
962.00 0.1145
962.10 0.1145
962.20 0.1145
962.30 0.1145
962.40 0.1145
962.50 0.1145
962.60 0.1145
962.70 0.1145
962.80 0.1145
962.90 0.1145
963.00 0.1145
963.10 0.1145
963.20 0.1145
963.30 0.1145
963.40 0.1145
963.50 0.1145
963.60 0.1144
963.70 0.1144
963.80 0.1144
963.90 0.1144
964.00 0.1144
964.10 0.1144
964.20 0.1144
964.30 0.1144
964.40 0.1144
964.50 0.1144
964.60 0.1144
964.70 0.1144
964.80 0.1144
964.90 0.1143
965.00 0.1143
965.10 0.1143
965.20 0.1143
965.30 0.1143
965.40 0.1143
965.50 0.1143
965.60 0.1143
965.70 0.1143
965.80 0.1142
965.90 0.1142
966.00 0.1142
966.10 0.1142
966.20 0.1142
966.30 0.1142
966.40 0.1142
966.50 0.1142
966.60 0.1142
966.70 0.1141
966.80 0.1141
966.90 0.1141
967.00 0.1141
967.10 0.1141
967.20 0.1141
967.30 0.114
967.40 0.114
967.50 0.114
967.60 0.114
967.70 0.114
967.80 0.114
967.90 0.1139
968.00 0.1139
968.10 0.1139
968.20 0.1139
968.30 0.1139
968.40 0.1139
968.50 0.1138
968.60 0.1138
968.70 0.1138
968.80 0.1138
968.90 0.1137
969.00 0.1137
969.10 0.1137
969.20 0.1137
969.30 0.1137
969.40 0.1136
969.50 0.1136
969.60 0.1136
969.70 0.1136
969.80 0.1136
969.90 0.1135
970.00 0.1135
970.10 0.1135
970.20 0.1135
970.30 0.1135
970.40 0.1134
970.50 0.1134
970.60 0.1134
970.70 0.1133
970.80 0.1133
970.90 0.1133
971.00 0.1133
971.10 0.1132
971.20 0.1132
971.30 0.1132
971.40 0.1132
971.50 0.1131
971.60 0.1131
971.70 0.1131
971.80 0.1131
971.90 0.113
972.00 0.113
972.10 0.113
972.20 0.113
972.30 0.1129
972.40 0.1129
972.50 0.1129
972.60 0.1128
972.70 0.1128
972.80 0.1128
972.90 0.1128
973.00 0.1127
973.10 0.1127
973.20 0.1127
973.30 0.1126
973.40 0.1126
973.50 0.1126
973.60 0.1125
973.70 0.1125
973.80 0.1125
973.90 0.1125
974.00 0.1124
974.10 0.1124
974.20 0.1124
974.30 0.1123
974.40 0.1123
974.50 0.1123
974.60 0.1122
974.70 0.1122
974.80 0.1122
974.90 0.1121
975.00 0.1121
975.10 0.1121
975.20 0.112
975.30 0.112
975.40 0.112
975.50 0.1119
975.60 0.1119
975.70 0.1119
975.80 0.1118
975.90 0.1118
976.00 0.1118
976.10 0.1117
976.20 0.1117
976.30 0.1117
976.40 0.1116
976.50 0.1116
976.60 0.1116
976.70 0.1115
976.80 0.1115
976.90 0.1115
977.00 0.1114
977.10 0.1114
977.20 0.1114
977.30 0.1113
977.40 0.1113
977.50 0.1112
977.60 0.1112
977.70 0.1112
977.80 0.1111
977.90 0.1111
978.00 0.111
978.10 0.111
978.20 0.111
978.30 0.1109
978.40 0.1109
978.50 0.1108
978.60 0.1108
978.70 0.1108
978.80 0.1107
978.90 0.1107
979.00 0.1106
979.10 0.1106
979.20 0.1106
979.30 0.1105
979.40 0.1105
979.50 0.1104
979.60 0.1104
979.70 0.1104
979.80 0.1103
979.90 0.1103
980.00 0.1102
980.10 0.1102
980.20 0.1102
980.30 0.1101
980.40 0.1101
980.50 0.11
980.60 0.11
980.70 0.11
980.80 0.1099
980.90 0.1099
981.00 0.1098
981.10 0.1098
981.20 0.1098
981.30 0.1097
981.40 0.1097
981.50 0.1096
981.60 0.1096
981.70 0.1096
981.80 0.1095
981.90 0.1095
982.00 0.1095
982.10 0.1094
982.20 0.1094
982.30 0.1093
982.40 0.1093
982.50 0.1092
982.60 0.1092
982.70 0.1091
982.80 0.1091
982.90 0.109
983.00 0.109
983.10 0.1089
983.20 0.1089
983.30 0.1088
983.40 0.1088
983.50 0.1087
983.60 0.1087
983.70 0.1087
983.80 0.1086
983.90 0.1086
984.00 0.1085
984.10 0.1085
984.20 0.1084
984.30 0.1084
984.40 0.1083
984.50 0.1083
984.60 0.1082
984.70 0.1082
984.80 0.1081
984.90 0.1081
985.00 0.108
985.10 0.108
985.20 0.1079
985.30 0.1079
985.40 0.1078
985.50 0.1077
985.60 0.1077
985.70 0.1076
985.80 0.1076
985.90 0.1075
986.00 0.1075
986.10 0.1074
986.20 0.1074
986.30 0.1073
986.40 0.1073
986.50 0.1072
986.60 0.1072
986.70 0.1071
986.80 0.1071
986.90 0.107
987.00 0.1069
987.10 0.1069
987.20 0.1068
987.30 0.1068
987.40 0.1067
987.50 0.1066
987.60 0.1066
987.70 0.1065
987.80 0.1065
987.90 0.1064
988.00 0.1063
988.10 0.1063
988.20 0.1062
988.30 0.1062
988.40 0.1061
988.50 0.106
988.60 0.106
988.70 0.1059
988.80 0.1058
988.90 0.1058
989.00 0.1057
989.10 0.1056
989.20 0.1056
989.30 0.1055
989.40 0.1054
989.50 0.1053
989.60 0.1053
989.70 0.1052
989.80 0.1051
989.90 0.1051
990.00 0.105
990.10 0.1049
990.20 0.1049
990.30 0.1048
990.40 0.1047
990.50 0.1047
990.60 0.1046
990.70 0.1045
990.80 0.1044
990.90 0.1044
991.00 0.1043
991.10 0.1042
991.20 0.1041
991.30 0.104
991.40 0.104
991.50 0.1039
991.60 0.1038
991.70 0.1037
991.80 0.1036
991.90 0.1036
992.00 0.1035
992.10 0.1034
992.20 0.1033
992.30 0.1032
992.40 0.1031
992.50 0.1031
992.60 0.103
992.70 0.1029
992.80 0.1028
992.90 0.1027
993.00 0.1026
993.10 0.1025
993.20 0.1024
993.30 0.1023
993.40 0.1022
993.50 0.1021
993.60 0.102
993.70 0.102
993.80 0.1019
993.90 0.1018
994.00 0.1017
994.10 0.1016
994.20 0.1015
994.30 0.1014
994.40 0.1013
994.50 0.1012
994.60 0.1011
994.70 0.101
994.80 0.1009
994.90 0.1008
995.00 0.1007
995.10 0.1006
995.20 0.1005
995.30 0.1004
995.40 0.1003
995.50 0.1002
995.60 0.1001
995.70 0.09999
995.80 0.09988
995.90 0.09978
996.00 0.09967
996.10 0.09956
996.20 0.09945
996.30 0.09934
996.40 0.09924
996.50 0.09913
996.60 0.09902
996.70 0.09891
996.80 0.09881
996.90 0.0987
997.00 0.09859
997.10 0.09848
997.20 0.09837
997.30 0.09826
997.40 0.09815
997.50 0.09803
997.60 0.09792
997.70 0.09781
997.80 0.0977
997.90 0.09759
998.00 0.09748
998.10 0.09737
998.20 0.09726
998.30 0.09715
998.40 0.09704
998.50 0.09693
998.60 0.09682
998.70 0.09671
998.80 0.09661
998.90 0.0965
999.00 0.09639
999.10 0.09628
999.20 0.09617
999.30 0.09606
999.40 0.09595
999.50 0.09584
999.60 0.09573
999.70 0.09563
999.80 0.09554
999.90 0.09545
1000.00 0.09536
1000.10 0.09526
1000.20 0.09517
1000.30 0.09508
1000.40 0.09499
1000.50 0.09489
1000.60 0.0948
1000.70 0.09471
1000.80 0.09462
1000.90 0.09453
1001.00 0.09443
1001.10 0.09434
1001.20 0.09425
1001.30 0.09416
1001.40 0.09407
1001.50 0.09397
1001.60 0.09388
1001.70 0.09381
1001.80 0.09374
1001.90 0.09367
1002.00 0.09361
1002.10 0.09357
1002.20 0.09353
1002.30 0.0935
1002.40 0.09346
1002.50 0.09342
1002.60 0.09338
1002.70 0.09335
1002.80 0.09331
1002.90 0.09327
1003.00 0.09323
1003.10 0.0932
1003.20 0.09331
1003.30 0.09346
1003.40 0.09361
1003.50 0.09377
1003.60 0.09392
1003.70 0.09408
1003.80 0.09423
1003.90 0.09439
1004.00 0.09456
1004.10 0.09473
1004.20 0.09489
1004.30 0.09507
1004.40 0.09526
1004.50 0.09541
1004.60 0.09549
1004.70 0.092
1004.80 0.09184
1004.90 0.09163
1005.00 0.09141
1005.10 0.0912
1005.20 0.09101
1005.30 0.09081
1005.40 0.09061
1005.50 0.09043
1005.60 0.09026
1005.70 0.09008
1005.80 0.08991
1005.90 0.08973
1006.00 0.08956
1006.10 0.08939
1006.20 0.08928
1006.30 0.0892
1006.40 0.08912
1006.50 0.08903
1006.60 0.08895
1006.70 0.08887
1006.80 0.08879
1006.90 0.0887
1007.00 0.08862
1007.10 0.08858
1007.20 0.08854
1007.30 0.0885
1007.40 0.08847
1007.50 0.08843
1007.60 0.08839
1007.70 0.08838
1007.80 0.08838
1007.90 0.08838
1008.00 0.08838
1008.10 0.08838
1008.20 0.08838
1008.30 0.08838
1008.40 0.08838
1008.50 0.08838
1008.60 0.08838
1008.70 0.08838
1008.80 0.08838
1008.90 0.08838
1009.00 0.08838
1009.10 0.08838
1009.20 0.08838
1009.30 0.08838
1009.40 0.08838
1009.50 0.08838
1009.60 0.08838
1009.70 0.0884
1009.80 0.08842
1009.90 0.08844
1010.00 0.08846
1010.10 0.08849
1010.20 0.08851
1010.30 0.08853
1010.40 0.08855
1010.50 0.08857
1010.60 0.0886
1010.70 0.08862
1010.80 0.08864
1010.90 0.08866
1011.00 0.08868
1011.10 0.08871
1011.20 0.08873
1011.30 0.08875
1011.40 0.08877
1011.50 0.08879
1011.60 0.08882
1011.70 0.08884
1011.80 0.08887
1011.90 0.0889
1012.00 0.08892
1012.10 0.08895
1012.20 0.08898
1012.30 0.089
1012.40 0.08903
1012.50 0.08906
1012.60 0.08908
1012.70 0.08911
1012.80 0.08913
1012.90 0.08916
1013.00 0.08919
1013.10 0.08921
1013.20 0.08924
1013.30 0.08927
1013.40 0.08929
1013.50 0.08932
1013.60 0.08934
1013.70 0.08937
1013.80 0.08939
1013.90 0.08942
1014.00 0.08944
1014.10 0.08947
1014.20 0.08949
1014.30 0.08951
1014.40 0.08954
1014.50 0.08956
1014.60 0.08959
1014.70 0.08961
1014.80 0.08963
1014.90 0.08965
1015.00 0.08967
1015.10 0.08969
1015.20 0.08971
1015.30 0.08973
1015.40 0.08976
1015.50 0.08978
1015.60 0.0898
1015.70 0.08982
1015.80 0.08984
1015.90 0.08986
1016.00 0.08988
1016.10 0.0899
1016.20 0.08992
1016.30 0.08994
1016.40 0.08996
1016.50 0.08998
1016.60 0.09001
1016.70 0.09002
1016.80 0.09004
1016.90 0.09006
1017.00 0.09008
1017.10 0.09009
1017.20 0.09011
1017.30 0.09012
1017.40 0.09014
1017.50 0.09015
1017.60 0.09017
1017.70 0.09018
1017.80 0.0902
1017.90 0.09021
1018.00 0.09023
1018.10 0.09024
1018.20 0.09026
1018.30 0.09027
1018.40 0.09028
1018.50 0.0903
1018.60 0.09031
1018.70 0.09033
1018.80 0.09034
1018.90 0.09035
1019.00 0.09036
1019.10 0.09037
1019.20 0.09038
1019.30 0.09039
1019.40 0.0904
1019.50 0.0904
1019.60 0.09041
1019.70 0.09042
1019.80 0.09043
1019.90 0.09044
1020.00 0.09045
1020.10 0.09046
1020.20 0.09047
1020.30 0.09048
1020.40 0.09049
1020.50 0.0905
1020.60 0.09051
1020.70 0.09052
1020.80 0.09053
1020.90 0.09053
1021.00 0.09054
1021.10 0.09054
1021.20 0.09055
1021.30 0.09055
1021.40 0.09056
1021.50 0.09056
1021.60 0.09057
1021.70 0.09058
1021.80 0.09058
1021.90 0.09059
1022.00 0.09059
1022.10 0.09059
1022.20 0.09059
1022.30 0.09059
1022.40 0.0906
1022.50 0.0906
1022.60 0.0906
1022.70 0.0906
1022.80 0.0906
1022.90 0.0906
1023.00 0.0906
1023.10 0.0906
1023.20 0.0906
1023.30 0.0906
1023.40 0.0906
1023.50 0.0906
1023.60 0.0906
1023.70 0.0906
1023.80 0.0906
1023.90 0.09061
1024.00 0.09061
1024.10 0.09061
1024.20 0.09061
1024.30 0.09061
1024.40 0.09061
1024.50 0.09061
1024.60 0.09061
1024.70 0.09061
1024.80 0.0906
1024.90 0.0906
1025.00 0.09059
1025.10 0.09059
1025.20 0.09058
1025.30 0.09058
1025.40 0.09057
1025.50 0.09057
1025.60 0.09057
1025.70 0.09056
1025.80 0.09056
1025.90 0.09055
1026.00 0.09055
1026.10 0.09054
1026.20 0.09054
1026.30 0.09053
1026.40 0.09053
1026.50 0.09052
1026.60 0.09052
1026.70 0.09051
1026.80 0.09051
1026.90 0.0905
1027.00 0.0905
1027.10 0.09049
1027.20 0.09048
1027.30 0.09047
1027.40 0.09045
1027.50 0.09044
1027.60 0.09043
1027.70 0.09042
1027.80 0.09041
1027.90 0.0904
1028.00 0.09039
1028.10 0.09038
1028.20 0.09036
1028.30 0.09035
1028.40 0.09034
1028.50 0.09033
1028.60 0.09032
1028.70 0.09031
1028.80 0.0903
1028.90 0.09028
1029.00 0.09027
1029.10 0.09026
1029.20 0.09025
1029.30 0.09024
1029.40 0.09023
1029.50 0.09022
1029.60 0.09021
1029.70 0.09019
1029.80 0.09018
1029.90 0.09017
1030.00 0.09016
1030.10 0.09015
1030.20 0.09014
1030.30 0.09013
1030.40 0.09012
1030.50 0.0901
1030.60 0.09009
1030.70 0.09008
1030.80 0.09007
1030.90 0.09006
1031.00 0.09005
1031.10 0.09004
1031.20 0.09003
1031.30 0.09001
1031.40 0.09
1031.50 0.08999
1031.60 0.08998
1031.70 0.08997
1031.80 0.08996
1031.90 0.08995
1032.00 0.08994
1032.10 0.08992
1032.20 0.0899
1032.30 0.08988
1032.40 0.08986
1032.50 0.08984
1032.60 0.08983
1032.70 0.08981
1032.80 0.08979
1032.90 0.08977
1033.00 0.08975
1033.10 0.08973
1033.20 0.08972
1033.30 0.0897
1033.40 0.08968
1033.50 0.08966
1033.60 0.08964
1033.70 0.08963
1033.80 0.08961
1033.90 0.08959
1034.00 0.08957
1034.10 0.08955
1034.20 0.08953
1034.30 0.08952
1034.40 0.0895
1034.50 0.08948
1034.60 0.08946
1034.70 0.08944
1034.80 0.08943
1034.90 0.08941
1035.00 0.08939
1035.10 0.08937
1035.20 0.08935
1035.30 0.08933
1035.40 0.08932
1035.50 0.0893
1035.60 0.08928
1035.70 0.08926
1035.80 0.08924
1035.90 0.08923
1036.00 0.08921
1036.10 0.08919
1036.20 0.08917
1036.30 0.08915
1036.40 0.08914
1036.50 0.08912
1036.60 0.0891
1036.70 0.08908
1036.80 0.08906
1036.90 0.08905
1037.00 0.08903
1037.10 0.089
1037.20 0.08898
1037.30 0.08896
1037.40 0.08893
1037.50 0.08891
1037.60 0.08888
1037.70 0.08886
1037.80 0.08884
1037.90 0.08881
1038.00 0.08879
1038.10 0.08877
1038.20 0.08874
1038.30 0.08872
1038.40 0.08869
1038.50 0.08867
1038.60 0.08865
1038.70 0.08862
1038.80 0.0886
1038.90 0.08858
1039.00 0.08855
1039.10 0.08853
1039.20 0.0885
1039.30 0.08848
1039.40 0.08846
1039.50 0.08843
1039.60 0.08841
1039.70 0.08839
1039.80 0.08836
1039.90 0.08834
1040.00 0.08831
1040.10 0.08829
1040.20 0.08827
1040.30 0.08824
1040.40 0.08822
1040.50 0.0882
1040.60 0.08817
1040.70 0.08815
1040.80 0.08813
1040.90 0.0881
1041.00 0.08808
1041.10 0.08805
1041.20 0.08803
1041.30 0.08801
1041.40 0.08798
1041.50 0.08796
1041.60 0.08794
1041.70 0.08791
1041.80 0.08789
1041.90 0.08787
1042.00 0.08784
1042.10 0.08781
1042.20 0.08779
1042.30 0.08776
1042.40 0.08773
1042.50 0.0877
1042.60 0.08767
1042.70 0.08765
1042.80 0.08762
1042.90 0.08759
1043.00 0.08756
1043.10 0.08753
1043.20 0.0875
1043.30 0.08748
1043.40 0.08745
1043.50 0.08742
1043.60 0.08739
1043.70 0.08736
1043.80 0.08734
1043.90 0.08731
1044.00 0.08728
1044.10 0.08725
1044.20 0.08722
1044.30 0.0872
1044.40 0.08717
1044.50 0.08714
1044.60 0.08711
1044.70 0.08708
1044.80 0.08706
1044.90 0.08703
1045.00 0.087
1045.10 0.08697
1045.20 0.08694
1045.30 0.08692
1045.40 0.08689
1045.50 0.08686
1045.60 0.08683
1045.70 0.0868
1045.80 0.08678
1045.90 0.08675
1046.00 0.08672
1046.10 0.08669
1046.20 0.08666
1046.30 0.08664
1046.40 0.08661
1046.50 0.08658
1046.60 0.08655
1046.70 0.08652
1046.80 0.0865
1046.90 0.08647
1047.00 0.08644
1047.10 0.08641
1047.20 0.08638
1047.30 0.08634
1047.40 0.08631
1047.50 0.08628
1047.60 0.08625
1047.70 0.08622
1047.80 0.08618
1047.90 0.08615
1048.00 0.08612
1048.10 0.08609
1048.20 0.08606
1048.30 0.08602
1048.40 0.08599
1048.50 0.08596
1048.60 0.08593
1048.70 0.0859
1048.80 0.08586
1048.90 0.08583
1049.00 0.0858
1049.10 0.08577
1049.20 0.08574
1049.30 0.0857
1049.40 0.08567
1049.50 0.08564
1049.60 0.08561
1049.70 0.08558
1049.80 0.08554
1049.90 0.08551
1050.00 0.08548
1050.10 0.08545
1050.20 0.08542
1050.30 0.08538
1050.40 0.08535
1050.50 0.08532
1050.60 0.08529
1050.70 0.08526
1050.80 0.08523
1050.90 0.08519
1051.00 0.08516
1051.10 0.08513
1051.20 0.0851
1051.30 0.08507
1051.40 0.08503
1051.50 0.085
1051.60 0.08497
1051.70 0.08494
1051.80 0.08491
1051.90 0.08488
1052.00 0.08484
1052.10 0.08481
1052.20 0.08477
1052.30 0.08474
1052.40 0.0847
1052.50 0.08466
1052.60 0.08463
1052.70 0.08459
1052.80 0.08455
1052.90 0.08452
1053.00 0.08448
1053.10 0.08444
1053.20 0.08441
1053.30 0.08437
1053.40 0.08434
1053.50 0.0843
1053.60 0.08426
1053.70 0.08423
1053.80 0.08419
1053.90 0.08416
1054.00 0.08412
1054.10 0.08408
1054.20 0.08405
1054.30 0.08401
1054.40 0.08397
1054.50 0.08394
1054.60 0.0839
1054.70 0.08387
1054.80 0.08383
1054.90 0.08379
1055.00 0.08376
1055.10 0.08372
1055.20 0.08369
1055.30 0.08365
1055.40 0.08361
1055.50 0.08358
1055.60 0.08354
1055.70 0.08351
1055.80 0.08347
1055.90 0.08343
1056.00 0.0834
1056.10 0.08336
1056.20 0.08333
1056.30 0.08329
1056.40 0.08326
1056.50 0.08322
1056.60 0.08318
1056.70 0.08315
1056.80 0.08311
1056.90 0.08308
1057.00 0.08304
1057.10 0.083
1057.20 0.08296
1057.30 0.08292
1057.40 0.08288
1057.50 0.08284
1057.60 0.08279
1057.70 0.08275
1057.80 0.08271
1057.90 0.08267
1058.00 0.08263
1058.10 0.08259
1058.20 0.08255
1058.30 0.08251
1058.40 0.08247
1058.50 0.08243
1058.60 0.08238
1058.70 0.08234
1058.80 0.0823
1058.90 0.08226
1059.00 0.08222
1059.10 0.08218
1059.20 0.08214
1059.30 0.0821
1059.40 0.08206
1059.50 0.08202
1059.60 0.08198
1059.70 0.08194
1059.80 0.0819
1059.90 0.08185
1060.00 0.08181
1060.10 0.08177
1060.20 0.08173
1060.30 0.08169
1060.40 0.08165
1060.50 0.08161
1060.60 0.08157
1060.70 0.08153
1060.80 0.08149
1060.90 0.08145
1061.00 0.08141
1061.10 0.08137
1061.20 0.08133
1061.30 0.08129
1061.40 0.08125
1061.50 0.08121
1061.60 0.08117
1061.70 0.08112
1061.80 0.08108
1061.90 0.08104
1062.00 0.081
1062.10 0.08096
1062.20 0.08091
1062.30 0.08086
1062.40 0.08082
1062.50 0.08077
1062.60 0.08072
1062.70 0.08068
1062.80 0.08063
1062.90 0.08058
1063.00 0.08054
1063.10 0.08049
1063.20 0.08044
1063.30 0.0804
1063.40 0.08035
1063.50 0.0803
1063.60 0.08026
1063.70 0.08021
1063.80 0.08016
1063.90 0.08012
1064.00 0.08007
1064.10 0.08003
1064.20 0.07998
1064.30 0.07993
1064.40 0.07989
1064.50 0.07984
1064.60 0.07979
1064.70 0.07975
1064.80 0.0797
1064.90 0.07966
1065.00 0.07961
1065.10 0.07956
1065.20 0.07952
1065.30 0.07947
1065.40 0.07942
1065.50 0.07938
1065.60 0.07933
1065.70 0.07929
1065.80 0.07924
1065.90 0.07919
1066.00 0.07915
1066.10 0.0791
1066.20 0.07906
1066.30 0.07901
1066.40 0.07896
1066.50 0.07892
1066.60 0.07887
1066.70 0.07882
1066.80 0.07878
1066.90 0.07873
1067.00 0.07869
1067.10 0.07863
1067.20 0.07858
1067.30 0.07853
1067.40 0.07847
1067.50 0.07842
1067.60 0.07836
1067.70 0.07831
1067.80 0.07826
1067.90 0.0782
1068.00 0.07815
1068.10 0.0781
1068.20 0.07804
1068.30 0.07799
1068.40 0.07793
1068.50 0.07788
1068.60 0.07783
1068.70 0.07777
1068.80 0.07772
1068.90 0.07767
1069.00 0.07761
1069.10 0.07756
1069.20 0.07751
1069.30 0.07745
1069.40 0.0774
1069.50 0.07735
1069.60 0.07729
1069.70 0.07724
1069.80 0.07719
1069.90 0.07713
1070.00 0.07708
1070.10 0.07703
1070.20 0.07697
1070.30 0.07692
1070.40 0.07687
1070.50 0.07681
1070.60 0.07676
1070.70 0.07671
1070.80 0.07665
1070.90 0.0766
1071.00 0.07655
1071.10 0.07649
1071.20 0.07644
1071.30 0.07639
1071.40 0.07634
1071.50 0.07628
1071.60 0.07623
1071.70 0.07618
1071.80 0.07612
1071.90 0.07607
1072.00 0.07602
1072.10 0.07596
1072.20 0.0759
1072.30 0.07584
1072.40 0.07578
1072.50 0.07572
1072.60 0.07566
1072.70 0.0756
1072.80 0.07555
1072.90 0.07549
1073.00 0.07543
1073.10 0.07537
1073.20 0.07531
1073.30 0.07525
1073.40 0.07519
1073.50 0.07513
1073.60 0.07507
1073.70 0.075
1073.80 0.07494
1073.90 0.07487
1074.00 0.07481
1074.10 0.07475
1074.20 0.07468
1074.30 0.07462
1074.40 0.07455
1074.50 0.07449
1074.60 0.07443
1074.70 0.07436
1074.80 0.0743
1074.90 0.07423
1075.00 0.07417
1075.10 0.07411
1075.20 0.07404
1075.30 0.07398
1075.40 0.07391
1075.50 0.07385
1075.60 0.07379
1075.70 0.07372
1075.80 0.07366
1075.90 0.07359
1076.00 0.07353
1076.10 0.07347
1076.20 0.0734
1076.30 0.07334
1076.40 0.07328
1076.50 0.07321
1076.60 0.07315
1076.70 0.07308
1076.80 0.07302
1076.90 0.07296
1077.00 0.07289
1077.10 0.07283
1077.20 0.07276
1077.30 0.07269
1077.40 0.07262
1077.50 0.07255
1077.60 0.07248
1077.70 0.07241
1077.80 0.07234
1077.90 0.07227
1078.00 0.07219
1078.10 0.07212
1078.20 0.07205
1078.30 0.07198
1078.40 0.07191
1078.50 0.07184
1078.60 0.07177
1078.70 0.0717
1078.80 0.07162
1078.90 0.07155
1079.00 0.07148
1079.10 0.07141
1079.20 0.07134
1079.30 0.07127
1079.40 0.0712
1079.50 0.07113
1079.60 0.07105
1079.70 0.07097
1079.80 0.0709
1079.90 0.07082
1080.00 0.07074
1080.10 0.07067
1080.20 0.07059
1080.30 0.07051
1080.40 0.07044
1080.50 0.07036
1080.60 0.07028
1080.70 0.07021
1080.80 0.07013
1080.90 0.07006
1081.00 0.06998
1081.10 0.0699
1081.20 0.06983
1081.30 0.06975
1081.40 0.06968
1081.50 0.0696
1081.60 0.06952
1081.70 0.06944
1081.80 0.06936
1081.90 0.06928
1082.00 0.0692
1082.10 0.06912
1082.20 0.06904
1082.30 0.06895
1082.40 0.06887
1082.50 0.06879
1082.60 0.06871
1082.70 0.06862
1082.80 0.06854
1082.90 0.06846
1083.00 0.06838
1083.10 0.0683
1083.20 0.06821
1083.30 0.06813
1083.40 0.06805
1083.50 0.06797
1083.60 0.06788
1083.70 0.0678
1083.80 0.06771
1083.90 0.06762
1084.00 0.06754
1084.10 0.06745
1084.20 0.06737
1084.30 0.06728
1084.40 0.0672
1084.50 0.06711
1084.60 0.06702
1084.70 0.06694
1084.80 0.06685
1084.90 0.06676
1085.00 0.06667
1085.10 0.06658
1085.20 0.06649
1085.30 0.06641
1085.40 0.06632
1085.50 0.06623
1085.60 0.06614
1085.70 0.06605
1085.80 0.06596
1085.90 0.06588
1086.00 0.06579
1086.10 0.0657
1086.20 0.06561
1086.30 0.06552
1086.40 0.06544
1086.50 0.06535
1086.60 0.06526
1086.70 0.06517
1086.80 0.06508
1086.90 0.06499
1087.00 0.0649
1087.10 0.06481
1087.20 0.06472
1087.30 0.06463
1087.40 0.06454
1087.50 0.06445
1087.60 0.06436
1087.70 0.06427
1087.80 0.06419
1087.90 0.0641
1088.00 0.06401
1088.10 0.06392
1088.20 0.06383
1088.30 0.06374
1088.40 0.06365
1088.50 0.06357
1088.60 0.06348
1088.70 0.0634
1088.80 0.06332
1088.90 0.06324
1089.00 0.06316
1089.10 0.06308
1089.20 0.063
1089.30 0.06292
1089.40 0.06283
1089.50 0.06275
1089.60 0.06267
1089.70 0.06259
1089.80 0.06251
1089.90 0.06243
1090.00 0.06235
1090.10 0.06227
1090.20 0.06219
1090.30 0.06211
1090.40 0.06203
1090.50 0.06196
1090.60 0.06192
1090.70 0.06189
1090.80 0.06185
1090.90 0.06181
1091.00 0.06178
1091.10 0.06174
1091.20 0.0617
1091.30 0.06167
1091.40 0.06163
1091.50 0.06159
1091.60 0.06156
1091.70 0.06152
1091.80 0.06148
1091.90 0.06145
1092.00 0.06141
1092.10 0.06145
1092.20 0.06148
1092.30 0.06152
1092.40 0.06156
1092.50 0.0616
1092.60 0.06164
1092.70 0.0617
1092.80 0.06181
1092.90 0.06193
1093.00 0.06204
1093.10 0.06217
1093.20 0.06234
1093.30 0.0625
1093.40 0.06264
1093.50 0.06267
1093.60 0.06252
1093.70 0.06232
1093.80 0.06212
1093.90 0.06193
1094.00 0.06178
1094.10 0.06163
1094.20 0.06148
1094.30 0.06135
1094.40 0.06128
1094.50 0.06121
1094.60 0.06114
1094.70 0.06106
1094.80 0.06099
1094.90 0.06092
1095.00 0.06087
1095.10 0.06087
1095.20 0.06087
1095.30 0.06086
1095.40 0.06086
1095.50 0.06086
1095.60 0.06086
1095.70 0.06086
1095.80 0.06086
1095.90 0.06085
1096.00 0.06085
1096.10 0.06085
1096.20 0.06085
1096.30 0.06085
1096.40 0.06085
1096.50 0.06086
1096.60 0.06089
1096.70 0.06093
1096.80 0.06097
1096.90 0.061
1097.00 0.06104
1097.10 0.06108
1097.20 0.06112
1097.30 0.06117
1097.40 0.06121
1097.50 0.06125
1097.60 0.06129
1097.70 0.06133
1097.80 0.06137
1097.90 0.06141
1098.00 0.06146
1098.10 0.0615
1098.20 0.06154
1098.30 0.06158
1098.40 0.06162
1098.50 0.06166
1098.60 0.06171
1098.70 0.06176
1098.80 0.0618
1098.90 0.06185
1099.00 0.06189
1099.10 0.06194
1099.20 0.06199
1099.30 0.06203
1099.40 0.06208
1099.50 0.06212
1099.60 0.06217
1099.70 0.06221
1099.80 0.06226
1099.90 0.06231
1100.00 0.06235
1100.10 0.0624
1100.20 0.06244
1100.30 0.06249
1100.40 0.06254
1100.50 0.06258
1100.60 0.06262
1100.70 0.06267
1100.80 0.06271
1100.90 0.06275
1101.00 0.0628
1101.10 0.06284
1101.20 0.06288
1101.30 0.06293
1101.40 0.06297
1101.50 0.06301
1101.60 0.06306
1101.70 0.0631
1101.80 0.06314
1101.90 0.06319
1102.00 0.06323
1102.10 0.06327
1102.20 0.06331
1102.30 0.06335
1102.40 0.06339
1102.50 0.06343
1102.60 0.06347
1102.70 0.06351
1102.80 0.06355
1102.90 0.06359
1103.00 0.06363
1103.10 0.06367
1103.20 0.06371
1103.30 0.06374
1103.40 0.06378
1103.50 0.06382
1103.60 0.06385
1103.70 0.06389
1103.80 0.06392
1103.90 0.06396
1104.00 0.06399
1104.10 0.06402
1104.20 0.06406
1104.30 0.06409
1104.40 0.06412
1104.50 0.06416
1104.60 0.06419
1104.70 0.06423
1104.80 0.06426
1104.90 0.06429
1105.00 0.06433
1105.10 0.06436
1105.20 0.06439
1105.30 0.06443
1105.40 0.06446
1105.50 0.06449
1105.60 0.06452
1105.70 0.06455
1105.80 0.06458
1105.90 0.06461
1106.00 0.06464
1106.10 0.06466
1106.20 0.06469
1106.30 0.06472
1106.40 0.06475
1106.50 0.06478
1106.60 0.06481
1106.70 0.06483
1106.80 0.06486
1106.90 0.06489
1107.00 0.06492
1107.10 0.06494
1107.20 0.06497
1107.30 0.06499
1107.40 0.06502
1107.50 0.06504
1107.60 0.06507
1107.70 0.06509
1107.80 0.06511
1107.90 0.06513
1108.00 0.06515
1108.10 0.06517
1108.20 0.0652
1108.30 0.06522
1108.40 0.06524
1108.50 0.06526
1108.60 0.06528
1108.70 0.06531
1108.80 0.06533
1108.90 0.06535
1109.00 0.06537
1109.10 0.06539
1109.20 0.06541
1109.30 0.06544
1109.40 0.06546
1109.50 0.06548
1109.60 0.06549
1109.70 0.06551
1109.80 0.06552
1109.90 0.06554
1110.00 0.06556
1110.10 0.06557
1110.20 0.06559
1110.30 0.0656
1110.40 0.06562
1110.50 0.06564
1110.60 0.06565
1110.70 0.06567
1110.80 0.06568
1110.90 0.0657
1111.00 0.06571
1111.10 0.06573
1111.20 0.06575
1111.30 0.06576
1111.40 0.06578
1111.50 0.06579
1111.60 0.06581
1111.70 0.06583
1111.80 0.06584
1111.90 0.06586
1112.00 0.06587
1112.10 0.06588
1112.20 0.0659
1112.30 0.06591
1112.40 0.06592
1112.50 0.06593
1112.60 0.06594
1112.70 0.06595
1112.80 0.06596
1112.90 0.06597
1113.00 0.06598
1113.10 0.066
1113.20 0.06601
1113.30 0.06602
1113.40 0.06603
1113.50 0.06604
1113.60 0.06604
1113.70 0.06605
1113.80 0.06606
1113.90 0.06606
1114.00 0.06607
1114.10 0.06608
1114.20 0.06608
1114.30 0.06609
1114.40 0.0661
1114.50 0.0661
1114.60 0.06611
1114.70 0.06611
1114.80 0.06612
1114.90 0.06613
1115.00 0.06613
1115.10 0.06614
1115.20 0.06615
1115.30 0.06615
1115.40 0.06616
1115.50 0.06616
1115.60 0.06617
1115.70 0.06618
1115.80 0.06618
1115.90 0.06619
1116.00 0.0662
1116.10 0.0662
1116.20 0.06621
1116.30 0.06621
1116.40 0.06622
1116.50 0.06623
1116.60 0.06623
1116.70 0.06624
1116.80 0.06625
1116.90 0.06625
1117.00 0.06626
1117.10 0.06626
1117.20 0.06626
1117.30 0.06626
1117.40 0.06626
1117.50 0.06626
1117.60 0.06626
1117.70 0.06626
1117.80 0.06626
1117.90 0.06625
1118.00 0.06625
1118.10 0.06625
1118.20 0.06625
1118.30 0.06625
1118.40 0.06625
1118.50 0.06625
1118.60 0.06625
1118.70 0.06625
1118.80 0.06625
1118.90 0.06625
1119.00 0.06625
1119.10 0.06625
1119.20 0.06625
1119.30 0.06625
1119.40 0.06625
1119.50 0.06625
1119.60 0.06625
1119.70 0.06625
1119.80 0.06625
1119.90 0.06625
1120.00 0.06625
1120.10 0.06625
1120.20 0.06625
1120.30 0.06624
1120.40 0.06624
1120.50 0.06624
1120.60 0.06624
1120.70 0.06624
1120.80 0.06624
1120.90 0.06624
1121.00 0.06624
1121.10 0.06624
1121.20 0.06624
1121.30 0.06624
1121.40 0.06624
1121.50 0.06624
1121.60 0.06624
1121.70 0.06624
1121.80 0.06624
1121.90 0.06624
1122.00 0.06624
1122.10 0.06623
1122.20 0.06622
1122.30 0.06622
1122.40 0.06621
1122.50 0.06621
1122.60 0.0662
1122.70 0.06619
1122.80 0.06619
1122.90 0.06618
1123.00 0.06617
1123.10 0.06617
1123.20 0.06616
1123.30 0.06616
1123.40 0.06615
1123.50 0.06614
1123.60 0.06614
1123.70 0.06613
1123.80 0.06612
1123.90 0.06612
1124.00 0.06611
1124.10 0.06611
1124.20 0.0661
1124.30 0.06609
1124.40 0.06609
1124.50 0.06608
1124.60 0.06607
1124.70 0.06607
1124.80 0.06606
1124.90 0.06606
1125.00 0.06605
1125.10 0.06604
1125.20 0.06604
1125.30 0.06603
1125.40 0.06602
1125.50 0.06602
1125.60 0.06601
1125.70 0.06601
1125.80 0.066
1125.90 0.06599
1126.00 0.06599
1126.10 0.06598
1126.20 0.06597
1126.30 0.06597
1126.40 0.06596
1126.50 0.06596
1126.60 0.06595
1126.70 0.06594
1126.80 0.06594
1126.90 0.06593
1127.00 0.06592
1127.10 0.06591
1127.20 0.0659
1127.30 0.06589
1127.40 0.06588
1127.50 0.06587
1127.60 0.06586
1127.70 0.06585
1127.80 0.06584
1127.90 0.06583
1128.00 0.06582
1128.10 0.06581
1128.20 0.0658
1128.30 0.06579
1128.40 0.06578
1128.50 0.06577
1128.60 0.06576
1128.70 0.06575
1128.80 0.06574
1128.90 0.06573
1129.00 0.06572
1129.10 0.06571
1129.20 0.0657
1129.30 0.06569
1129.40 0.06568
1129.50 0.06567
1129.60 0.06566
1129.70 0.06565
1129.80 0.06563
1129.90 0.06562
1130.00 0.06561
1130.10 0.0656
1130.20 0.06559
1130.30 0.06558
1130.40 0.06557
1130.50 0.06556
1130.60 0.06555
1130.70 0.06554
1130.80 0.06553
1130.90 0.06552
1131.00 0.06551
1131.10 0.0655
1131.20 0.06549
1131.30 0.06548
1131.40 0.06547
1131.50 0.06546
1131.60 0.06545
1131.70 0.06544
1131.80 0.06543
1131.90 0.06542
1132.00 0.06541
1132.10 0.0654
1132.20 0.06538
1132.30 0.06537
1132.40 0.06536
1132.50 0.06534
1132.60 0.06533
1132.70 0.06532
1132.80 0.0653
1132.90 0.06529
1133.00 0.06528
1133.10 0.06526
1133.20 0.06525
1133.30 0.06524
1133.40 0.06522
1133.50 0.06521
1133.60 0.0652
1133.70 0.06519
1133.80 0.06517
1133.90 0.06516
1134.00 0.06515
1134.10 0.06513
1134.20 0.06512
1134.30 0.06511
1134.40 0.06509
1134.50 0.06508
1134.60 0.06507
1134.70 0.06505
1134.80 0.06504
1134.90 0.06503
1135.00 0.06501
1135.10 0.065
1135.20 0.06499
1135.30 0.06498
1135.40 0.06496
1135.50 0.06495
1135.60 0.06494
1135.70 0.06492
1135.80 0.06491
1135.90 0.0649
1136.00 0.06488
1136.10 0.06487
1136.20 0.06486
1136.30 0.06485
1136.40 0.06483
1136.50 0.06482
1136.60 0.06481
1136.70 0.06479
1136.80 0.06478
1136.90 0.06477
1137.00 0.06475
1137.10 0.06474
1137.20 0.06472
1137.30 0.06471
1137.40 0.06469
1137.50 0.06468
1137.60 0.06466
1137.70 0.06465
1137.80 0.06463
1137.90 0.06462
1138.00 0.0646
1138.10 0.06459
1138.20 0.06457
1138.30 0.06456
1138.40 0.06454
1138.50 0.06453
1138.60 0.06451
1138.70 0.0645
1138.80 0.06448
1138.90 0.06447
1139.00 0.06445
1139.10 0.06444
1139.20 0.06442
1139.30 0.06441
1139.40 0.06439
1139.50 0.06438
1139.60 0.06436
1139.70 0.06435
1139.80 0.06433
1139.90 0.06432
1140.00 0.0643
1140.10 0.06429
1140.20 0.06427
1140.30 0.06426
1140.40 0.06424
1140.50 0.06423
1140.60 0.06421
1140.70 0.0642
1140.80 0.06418
1140.90 0.06417
1141.00 0.06415
1141.10 0.06414
1141.20 0.06413
1141.30 0.06411
1141.40 0.0641
1141.50 0.06408
1141.60 0.06407
1141.70 0.06405
1141.80 0.06404
1141.90 0.06402
1142.00 0.06401
1142.10 0.06399
1142.20 0.06397
1142.30 0.06396
1142.40 0.06394
1142.50 0.06392
1142.60 0.06391
1142.70 0.06389
1142.80 0.06388
1142.90 0.06386
1143.00 0.06384
1143.10 0.06383
1143.20 0.06381
1143.30 0.06379
1143.40 0.06378
1143.50 0.06376
1143.60 0.06375
1143.70 0.06373
1143.80 0.06371
1143.90 0.0637
1144.00 0.06368
1144.10 0.06366
1144.20 0.06365
1144.30 0.06363
1144.40 0.06362
1144.50 0.0636
1144.60 0.06358
1144.70 0.06357
1144.80 0.06355
1144.90 0.06353
1145.00 0.06352
1145.10 0.0635
1145.20 0.06349
1145.30 0.06347
1145.40 0.06345
1145.50 0.06344
1145.60 0.06342
1145.70 0.0634
1145.80 0.06339
1145.90 0.06337
1146.00 0.06336
1146.10 0.06334
1146.20 0.06332
1146.30 0.06331
1146.40 0.06329
1146.50 0.06328
1146.60 0.06326
1146.70 0.06324
1146.80 0.06323
1146.90 0.06321
1147.00 0.06319
1147.10 0.06318
1147.20 0.06316
1147.30 0.06314
1147.40 0.06313
1147.50 0.06311
1147.60 0.06309
1147.70 0.06307
1147.80 0.06306
1147.90 0.06304
1148.00 0.06302
1148.10 0.06301
1148.20 0.06299
1148.30 0.06297
1148.40 0.06295
1148.50 0.06294
1148.60 0.06292
1148.70 0.0629
1148.80 0.06289
1148.90 0.06287
1149.00 0.06285
1149.10 0.06283
1149.20 0.06282
1149.30 0.0628
1149.40 0.06278
1149.50 0.06277
1149.60 0.06275
1149.70 0.06273
1149.80 0.06271
1149.90 0.0627
1150.00 0.06268
1150.10 0.06266
1150.20 0.06265
1150.30 0.06263
1150.40 0.06261
1150.50 0.06259
1150.60 0.06258
1150.70 0.06256
1150.80 0.06254
1150.90 0.06253
1151.00 0.06251
1151.10 0.06249
1151.20 0.06248
1151.30 0.06246
1151.40 0.06244
1151.50 0.06242
1151.60 0.06241
1151.70 0.06239
1151.80 0.06237
1151.90 0.06236
1152.00 0.06234
1152.10 0.06232
1152.20 0.0623
1152.30 0.06229
1152.40 0.06227
1152.50 0.06225
1152.60 0.06223
1152.70 0.06222
1152.80 0.0622
1152.90 0.06218
1153.00 0.06216
1153.10 0.06215
1153.20 0.06213
1153.30 0.06211
1153.40 0.06209
1153.50 0.06207
1153.60 0.06206
1153.70 0.06204
1153.80 0.06202
1153.90 0.062
1154.00 0.06199
1154.10 0.06197
1154.20 0.06195
1154.30 0.06193
1154.40 0.06192
1154.50 0.0619
1154.60 0.06188
1154.70 0.06186
1154.80 0.06185
1154.90 0.06183
1155.00 0.06181
1155.10 0.06179
1155.20 0.06178
1155.30 0.06176
1155.40 0.06174
1155.50 0.06172
1155.60 0.06171
1155.70 0.06169
1155.80 0.06167
1155.90 0.06165
1156.00 0.06164
1156.10 0.06162
1156.20 0.0616
1156.30 0.06158
1156.40 0.06157
1156.50 0.06155
1156.60 0.06153
1156.70 0.06151
1156.80 0.0615
1156.90 0.06148
1157.00 0.06146
1157.10 0.06144
1157.20 0.06143
1157.30 0.06141
1157.40 0.06139
1157.50 0.06137
1157.60 0.06135
1157.70 0.06134
1157.80 0.06132
1157.90 0.0613
1158.00 0.06128
1158.10 0.06126
1158.20 0.06125
1158.30 0.06123
1158.40 0.06121
1158.50 0.06119
1158.60 0.06117
1158.70 0.06116
1158.80 0.06114
1158.90 0.06112
1159.00 0.0611
1159.10 0.06108
1159.20 0.06107
1159.30 0.06105
1159.40 0.06103
1159.50 0.06101
1159.60 0.061
1159.70 0.06098
1159.80 0.06096
1159.90 0.06094
1160.00 0.06092
1160.10 0.06091
1160.20 0.06089
1160.30 0.06087
1160.40 0.06085
1160.50 0.06083
1160.60 0.06082
1160.70 0.0608
1160.80 0.06078
1160.90 0.06076
1161.00 0.06075
1161.10 0.06073
1161.20 0.06071
1161.30 0.06069
1161.40 0.06067
1161.50 0.06066
1161.60 0.06064
1161.70 0.06062
1161.80 0.0606
1161.90 0.06059
1162.00 0.06057
1162.10 0.06055
1162.20 0.06053
1162.30 0.06051
1162.40 0.0605
1162.50 0.06048
1162.60 0.06046
1162.70 0.06044
1162.80 0.06042
1162.90 0.06041
1163.00 0.06039
1163.10 0.06037
1163.20 0.06035
1163.30 0.06033
1163.40 0.06032
1163.50 0.0603
1163.60 0.06028
1163.70 0.06026
1163.80 0.06024
1163.90 0.06022
1164.00 0.06021
1164.10 0.06019
1164.20 0.06017
1164.30 0.06015
1164.40 0.06013
1164.50 0.06012
1164.60 0.0601
1164.70 0.06008
1164.80 0.06006
1164.90 0.06005
1165.00 0.06003
1165.10 0.06001
1165.20 0.05999
1165.30 0.05997
1165.40 0.05996
1165.50 0.05994
1165.60 0.05992
1165.70 0.0599
1165.80 0.05988
1165.90 0.05987
1166.00 0.05985
1166.10 0.05983
1166.20 0.05981
1166.30 0.05979
1166.40 0.05978
1166.50 0.05976
1166.60 0.05974
1166.70 0.05972
1166.80 0.05971
1166.90 0.05969
1167.00 0.05967
1167.10 0.05965
1167.20 0.05963
1167.30 0.05961
1167.40 0.0596
1167.50 0.05958
1167.60 0.05956
1167.70 0.05954
1167.80 0.05952
1167.90 0.05951
1168.00 0.05949
1168.10 0.05947
1168.20 0.05945
1168.30 0.05943
1168.40 0.05942
1168.50 0.0594
1168.60 0.05938
1168.70 0.05936
1168.80 0.05934
1168.90 0.05932
1169.00 0.05931
1169.10 0.05929
1169.20 0.05927
1169.30 0.05925
1169.40 0.05923
1169.50 0.05922
1169.60 0.0592
1169.70 0.05918
1169.80 0.05916
1169.90 0.05914
1170.00 0.05913
1170.10 0.05911
1170.20 0.05909
1170.30 0.05907
1170.40 0.05905
1170.50 0.05904
1170.60 0.05902
1170.70 0.059
1170.80 0.05898
1170.90 0.05896
1171.00 0.05895
1171.10 0.05893
1171.20 0.05891
1171.30 0.05889
1171.40 0.05887
1171.50 0.05886
1171.60 0.05884
1171.70 0.05882
1171.80 0.0588
1171.90 0.05878
1172.00 0.05877
1172.10 0.05875
1172.20 0.05873
1172.30 0.05871
1172.40 0.05869
1172.50 0.05868
1172.60 0.05866
1172.70 0.05864
1172.80 0.05862
1172.90 0.0586
1173.00 0.05858
1173.10 0.05857
1173.20 0.05855
1173.30 0.05853
1173.40 0.05851
1173.50 0.05849
1173.60 0.05848
1173.70 0.05846
1173.80 0.05844
1173.90 0.05842
1174.00 0.0584
1174.10 0.05839
1174.20 0.05837
1174.30 0.05835
1174.40 0.05833
1174.50 0.05831
1174.60 0.0583
1174.70 0.05828
1174.80 0.05826
1174.90 0.05824
1175.00 0.05822
1175.10 0.05821
1175.20 0.05819
1175.30 0.05817
1175.40 0.05815
1175.50 0.05813
1175.60 0.05812
1175.70 0.0581
1175.80 0.05808
1175.90 0.05806
1176.00 0.05804
1176.10 0.05803
1176.20 0.05801
1176.30 0.05799
1176.40 0.05797
1176.50 0.05795
1176.60 0.05794
1176.70 0.05792
1176.80 0.0579
1176.90 0.05788
1177.00 0.05786
1177.10 0.05785
1177.20 0.05783
1177.30 0.05781
1177.40 0.05779
1177.50 0.05777
1177.60 0.05776
1177.70 0.05774
1177.80 0.05772
1177.90 0.0577
1178.00 0.05768
1178.10 0.05767
1178.20 0.05765
1178.30 0.05763
1178.40 0.05761
1178.50 0.05759
1178.60 0.05758
1178.70 0.05756
1178.80 0.05754
1178.90 0.05752
1179.00 0.05751
1179.10 0.05749
1179.20 0.05747
1179.30 0.05745
1179.40 0.05743
1179.50 0.05742
1179.60 0.0574
1179.70 0.05738
1179.80 0.05736
1179.90 0.05734
1180.00 0.05733
1180.10 0.05731
1180.20 0.05729
1180.30 0.05727
1180.40 0.05725
1180.50 0.05724
1180.60 0.05722
1180.70 0.0572
1180.80 0.05718
1180.90 0.05717
1181.00 0.05715
1181.10 0.05713
1181.20 0.05711
1181.30 0.05709
1181.40 0.05708
1181.50 0.05706
1181.60 0.05704
1181.70 0.05702
1181.80 0.05701
1181.90 0.05699
1182.00 0.05697
1182.10 0.05695
1182.20 0.05693
1182.30 0.05692
1182.40 0.0569
1182.50 0.05688
1182.60 0.05686
1182.70 0.05684
1182.80 0.05683
1182.90 0.05681
1183.00 0.05679
1183.10 0.05677
1183.20 0.05675
1183.30 0.05674
1183.40 0.05672
1183.50 0.0567
1183.60 0.05668
1183.70 0.05666
1183.80 0.05665
1183.90 0.05663
1184.00 0.05661
1184.10 0.05659
1184.20 0.05657
1184.30 0.05656
1184.40 0.05654
1184.50 0.05652
1184.60 0.0565
1184.70 0.05648
1184.80 0.05647
1184.90 0.05645
1185.00 0.05643
1185.10 0.05641
1185.20 0.0564
1185.30 0.05638
1185.40 0.05636
1185.50 0.05634
1185.60 0.05632
1185.70 0.05631
1185.80 0.05629
1185.90 0.05627
1186.00 0.05625
1186.10 0.05623
1186.20 0.05622
1186.30 0.0562
1186.40 0.05618
1186.50 0.05616
1186.60 0.05615
1186.70 0.05613
1186.80 0.05611
1186.90 0.05609
1187.00 0.05607
1187.10 0.05606
1187.20 0.05604
1187.30 0.05602
1187.40 0.056
1187.50 0.05599
1187.60 0.05597
1187.70 0.05595
1187.80 0.05593
1187.90 0.05591
1188.00 0.0559
1188.10 0.05588
1188.20 0.05586
1188.30 0.05584
1188.40 0.05582
1188.50 0.05581
1188.60 0.05579
1188.70 0.05577
1188.80 0.05575
1188.90 0.05574
1189.00 0.05572
1189.10 0.0557
1189.20 0.05568
1189.30 0.05566
1189.40 0.05565
1189.50 0.05563
1189.60 0.05561
1189.70 0.05559
1189.80 0.05558
1189.90 0.05556
1190.00 0.05554
1190.10 0.05552
1190.20 0.0555
1190.30 0.05549
1190.40 0.05547
1190.50 0.05545
1190.60 0.05543
1190.70 0.05542
1190.80 0.0554
1190.90 0.05538
1191.00 0.05536
1191.10 0.05535
1191.20 0.05533
1191.30 0.05531
1191.40 0.05529
1191.50 0.05527
1191.60 0.05526
1191.70 0.05524
1191.80 0.05522
1191.90 0.0552
1192.00 0.05519
1192.10 0.05517
1192.20 0.05515
1192.30 0.05513
1192.40 0.05512
1192.50 0.0551
1192.60 0.05508
1192.70 0.05506
1192.80 0.05504
1192.90 0.05503
1193.00 0.05501
1193.10 0.05499
1193.20 0.05497
1193.30 0.05495
1193.40 0.05494
1193.50 0.05492
1193.60 0.0549
1193.70 0.05488
1193.80 0.05487
1193.90 0.05485
1194.00 0.05483
1194.10 0.05481
1194.20 0.05479
1194.30 0.05478
1194.40 0.05476
1194.50 0.05474
1194.60 0.05472
1194.70 0.05471
1194.80 0.05469
1194.90 0.05467
1195.00 0.05465
1195.10 0.05464
1195.20 0.05462
1195.30 0.0546
1195.40 0.05458
1195.50 0.05456
1195.60 0.05455
1195.70 0.05453
1195.80 0.05451
1195.90 0.05449
1196.00 0.05448
1196.10 0.05446
1196.20 0.05444
1196.30 0.05442
1196.40 0.05441
1196.50 0.05439
1196.60 0.05437
1196.70 0.05435
1196.80 0.05433
1196.90 0.05432
1197.00 0.0543
1197.10 0.05428
1197.20 0.05426
1197.30 0.05425
1197.40 0.05423
1197.50 0.05421
1197.60 0.05419
1197.70 0.05418
1197.80 0.05416
1197.90 0.05414
1198.00 0.05412
1198.10 0.0541
1198.20 0.05409
1198.30 0.05407
1198.40 0.05405
1198.50 0.05403
1198.60 0.05402
1198.70 0.054
1198.80 0.05398
1198.90 0.05396
1199.00 0.05395
1199.10 0.05393
1199.20 0.05391
1199.30 0.05389
1199.40 0.05387
1199.50 0.05386
1199.60 0.05384
1199.70 0.05382
1199.80 0.0538
1199.90 0.05379
1200.00 0
