# Version 2.1 - nm, norm@500 to 1, cut digits, bergeron_5000_75.dat_5000
# Wavelength(nm)  Flambda(ergs/cm^s/s/nm)
300.00 0.361
300.10 0.3614
300.20 0.3619
300.30 0.3623
300.40 0.3628
300.50 0.3633
300.60 0.3637
300.70 0.3642
300.80 0.3646
300.90 0.3651
301.00 0.3655
301.10 0.366
301.20 0.3664
301.30 0.3669
301.40 0.3673
301.50 0.3678
301.60 0.3682
301.70 0.3687
301.80 0.3691
301.90 0.3696
302.00 0.37
302.10 0.3705
302.20 0.3709
302.30 0.3714
302.40 0.3718
302.50 0.3723
302.60 0.3728
302.70 0.3732
302.80 0.3737
302.90 0.3741
303.00 0.3746
303.10 0.375
303.20 0.3755
303.30 0.3759
303.40 0.3764
303.50 0.3768
303.60 0.3773
303.70 0.3777
303.80 0.3782
303.90 0.3786
304.00 0.3791
304.10 0.3795
304.20 0.38
304.30 0.3805
304.40 0.3809
304.50 0.3814
304.60 0.3818
304.70 0.3823
304.80 0.3828
304.90 0.3832
305.00 0.3837
305.10 0.3841
305.20 0.3846
305.30 0.385
305.40 0.3855
305.50 0.3859
305.60 0.3864
305.70 0.3868
305.80 0.3873
305.90 0.3877
306.00 0.3882
306.10 0.3886
306.20 0.3891
306.30 0.3896
306.40 0.39
306.50 0.3905
306.60 0.3909
306.70 0.3914
306.80 0.3919
306.90 0.3923
307.00 0.3928
307.10 0.3932
307.20 0.3937
307.30 0.3941
307.40 0.3946
307.50 0.395
307.60 0.3955
307.70 0.396
307.80 0.3964
307.90 0.3969
308.00 0.3973
308.10 0.3978
308.20 0.3982
308.30 0.3987
308.40 0.3992
308.50 0.3996
308.60 0.4001
308.70 0.4005
308.80 0.401
308.90 0.4015
309.00 0.4019
309.10 0.4024
309.20 0.4028
309.30 0.4033
309.40 0.4037
309.50 0.4042
309.60 0.4046
309.70 0.4051
309.80 0.4055
309.90 0.406
310.00 0.4065
310.10 0.4069
310.20 0.4074
310.30 0.4078
310.40 0.4083
310.50 0.4088
310.60 0.4092
310.70 0.4097
310.80 0.4101
310.90 0.4106
311.00 0.4111
311.10 0.4115
311.20 0.412
311.30 0.4124
311.40 0.4129
311.50 0.4134
311.60 0.4138
311.70 0.4143
311.80 0.4147
311.90 0.4152
312.00 0.4156
312.10 0.4161
312.20 0.4165
312.30 0.417
312.40 0.4174
312.50 0.4179
312.60 0.4184
312.70 0.4188
312.80 0.4193
312.90 0.4198
313.00 0.4202
313.10 0.4207
313.20 0.4211
313.30 0.4216
313.40 0.422
313.50 0.4225
313.60 0.423
313.70 0.4234
313.80 0.4239
313.90 0.4243
314.00 0.4248
314.10 0.4252
314.20 0.4257
314.30 0.4262
314.40 0.4266
314.50 0.4271
314.60 0.4276
314.70 0.428
314.80 0.4285
314.90 0.4289
315.00 0.4294
315.10 0.4298
315.20 0.4303
315.30 0.4308
315.40 0.4312
315.50 0.4317
315.60 0.4321
315.70 0.4326
315.80 0.433
315.90 0.4335
316.00 0.434
316.10 0.4344
316.20 0.4349
316.30 0.4353
316.40 0.4358
316.50 0.4363
316.60 0.4367
316.70 0.4372
316.80 0.4376
316.90 0.4381
317.00 0.4386
317.10 0.439
317.20 0.4395
317.30 0.4399
317.40 0.4404
317.50 0.4409
317.60 0.4413
317.70 0.4418
317.80 0.4422
317.90 0.4427
318.00 0.4431
318.10 0.4436
318.20 0.4441
318.30 0.4445
318.40 0.445
318.50 0.4454
318.60 0.4459
318.70 0.4464
318.80 0.4468
318.90 0.4473
319.00 0.4477
319.10 0.4482
319.20 0.4487
319.30 0.4491
319.40 0.4496
319.50 0.45
319.60 0.4505
319.70 0.4509
319.80 0.4514
319.90 0.4518
320.00 0.4523
320.10 0.4528
320.20 0.4532
320.30 0.4537
320.40 0.4542
320.50 0.4546
320.60 0.4551
320.70 0.4555
320.80 0.456
320.90 0.4565
321.00 0.4569
321.10 0.4574
321.20 0.4578
321.30 0.4583
321.40 0.4587
321.50 0.4592
321.60 0.4597
321.70 0.4601
321.80 0.4606
321.90 0.461
322.00 0.4615
322.10 0.4619
322.20 0.4624
322.30 0.4629
322.40 0.4633
322.50 0.4638
322.60 0.4642
322.70 0.4647
322.80 0.4652
322.90 0.4656
323.00 0.4661
323.10 0.4665
323.20 0.467
323.30 0.4675
323.40 0.4679
323.50 0.4684
323.60 0.4688
323.70 0.4693
323.80 0.4697
323.90 0.4702
324.00 0.4706
324.10 0.4711
324.20 0.4716
324.30 0.472
324.40 0.4725
324.50 0.4729
324.60 0.4734
324.70 0.4739
324.80 0.4743
324.90 0.4748
325.00 0.4752
325.10 0.4757
325.20 0.4762
325.30 0.4766
325.40 0.4771
325.50 0.4775
325.60 0.478
325.70 0.4784
325.80 0.4789
325.90 0.4793
326.00 0.4798
326.10 0.4802
326.20 0.4807
326.30 0.4812
326.40 0.4816
326.50 0.4821
326.60 0.4825
326.70 0.483
326.80 0.4835
326.90 0.4839
327.00 0.4844
327.10 0.4848
327.20 0.4853
327.30 0.4857
327.40 0.4862
327.50 0.4867
327.60 0.4871
327.70 0.4876
327.80 0.488
327.90 0.4885
328.00 0.4889
328.10 0.4894
328.20 0.4898
328.30 0.4903
328.40 0.4908
328.50 0.4912
328.60 0.4917
328.70 0.4921
328.80 0.4926
328.90 0.493
329.00 0.4935
329.10 0.494
329.20 0.4944
329.30 0.4949
329.40 0.4953
329.50 0.4958
329.60 0.4962
329.70 0.4967
329.80 0.4971
329.90 0.4976
330.00 0.498
330.10 0.4985
330.20 0.4989
330.30 0.4994
330.40 0.4999
330.50 0.5003
330.60 0.5008
330.70 0.5012
330.80 0.5017
330.90 0.5021
331.00 0.5026
331.10 0.5031
331.20 0.5035
331.30 0.504
331.40 0.5044
331.50 0.5049
331.60 0.5053
331.70 0.5058
331.80 0.5062
331.90 0.5067
332.00 0.5071
332.10 0.5076
332.20 0.508
332.30 0.5085
332.40 0.5089
332.50 0.5094
332.60 0.5099
332.70 0.5103
332.80 0.5108
332.90 0.5112
333.00 0.5117
333.10 0.5121
333.20 0.5126
333.30 0.513
333.40 0.5135
333.50 0.5139
333.60 0.5144
333.70 0.5148
333.80 0.5153
333.90 0.5157
334.00 0.5162
334.10 0.5166
334.20 0.5171
334.30 0.5175
334.40 0.518
334.50 0.5185
334.60 0.5189
334.70 0.5194
334.80 0.5198
334.90 0.5203
335.00 0.5207
335.10 0.5212
335.20 0.5216
335.30 0.5221
335.40 0.5225
335.50 0.523
335.60 0.5234
335.70 0.5239
335.80 0.5243
335.90 0.5248
336.00 0.5252
336.10 0.5257
336.20 0.5261
336.30 0.5266
336.40 0.527
336.50 0.5275
336.60 0.5279
336.70 0.5284
336.80 0.5288
336.90 0.5293
337.00 0.5297
337.10 0.5302
337.20 0.5306
337.30 0.5311
337.40 0.5315
337.50 0.532
337.60 0.5324
337.70 0.5329
337.80 0.5333
337.90 0.5338
338.00 0.5342
338.10 0.5347
338.20 0.5351
338.30 0.5356
338.40 0.536
338.50 0.5365
338.60 0.5369
338.70 0.5374
338.80 0.5378
338.90 0.5383
339.00 0.5387
339.10 0.5392
339.20 0.5396
339.30 0.5401
339.40 0.5405
339.50 0.541
339.60 0.5414
339.70 0.5418
339.80 0.5423
339.90 0.5427
340.00 0.5432
340.10 0.5436
340.20 0.5441
340.30 0.5445
340.40 0.545
340.50 0.5454
340.60 0.5459
340.70 0.5463
340.80 0.5468
340.90 0.5472
341.00 0.5477
341.10 0.5481
341.20 0.5486
341.30 0.549
341.40 0.5495
341.50 0.5499
341.60 0.5503
341.70 0.5508
341.80 0.5512
341.90 0.5517
342.00 0.5521
342.10 0.5526
342.20 0.553
342.30 0.5535
342.40 0.5539
342.50 0.5543
342.60 0.5548
342.70 0.5552
342.80 0.5557
342.90 0.5561
343.00 0.5566
343.10 0.557
343.20 0.5575
343.30 0.5579
343.40 0.5583
343.50 0.5588
343.60 0.5592
343.70 0.5597
343.80 0.5601
343.90 0.5605
344.00 0.561
344.10 0.5614
344.20 0.5619
344.30 0.5623
344.40 0.5628
344.50 0.5632
344.60 0.5637
344.70 0.5641
344.80 0.5645
344.90 0.565
345.00 0.5654
345.10 0.5659
345.20 0.5663
345.30 0.5668
345.40 0.5672
345.50 0.5676
345.60 0.5681
345.70 0.5685
345.80 0.5689
345.90 0.5694
346.00 0.5698
346.10 0.5703
346.20 0.5707
346.30 0.5712
346.40 0.5716
346.50 0.572
346.60 0.5725
346.70 0.5729
346.80 0.5734
346.90 0.5738
347.00 0.5742
347.10 0.5747
347.20 0.5751
347.30 0.5756
347.40 0.576
347.50 0.5764
347.60 0.5769
347.70 0.5773
347.80 0.5777
347.90 0.5782
348.00 0.5786
348.10 0.5791
348.20 0.5795
348.30 0.5799
348.40 0.5804
348.50 0.5808
348.60 0.5813
348.70 0.5817
348.80 0.5821
348.90 0.5826
349.00 0.583
349.10 0.5834
349.20 0.5839
349.30 0.5843
349.40 0.5848
349.50 0.5852
349.60 0.5856
349.70 0.5861
349.80 0.5865
349.90 0.5869
350.00 0.5874
350.10 0.5878
350.20 0.5882
350.30 0.5887
350.40 0.5891
350.50 0.5895
350.60 0.59
350.70 0.5904
350.80 0.5909
350.90 0.5913
351.00 0.5917
351.10 0.5922
351.20 0.5926
351.30 0.593
351.40 0.5935
351.50 0.5939
351.60 0.5943
351.70 0.5947
351.80 0.5952
351.90 0.5956
352.00 0.596
352.10 0.5965
352.20 0.5969
352.30 0.5973
352.40 0.5978
352.50 0.5982
352.60 0.5986
352.70 0.5991
352.80 0.5995
352.90 0.5999
353.00 0.6004
353.10 0.6008
353.20 0.6012
353.30 0.6017
353.40 0.6021
353.50 0.6025
353.60 0.603
353.70 0.6034
353.80 0.6038
353.90 0.6042
354.00 0.6047
354.10 0.6051
354.20 0.6055
354.30 0.606
354.40 0.6064
354.50 0.6068
354.60 0.6073
354.70 0.6077
354.80 0.6081
354.90 0.6085
355.00 0.609
355.10 0.6094
355.20 0.6098
355.30 0.6103
355.40 0.6107
355.50 0.6111
355.60 0.6115
355.70 0.612
355.80 0.6124
355.90 0.6128
356.00 0.6132
356.10 0.6137
356.20 0.6141
356.30 0.6145
356.40 0.615
356.50 0.6154
356.60 0.6158
356.70 0.6162
356.80 0.6167
356.90 0.6171
357.00 0.6175
357.10 0.6179
357.20 0.6184
357.30 0.6188
357.40 0.6192
357.50 0.6196
357.60 0.6201
357.70 0.6205
357.80 0.6209
357.90 0.6213
358.00 0.6217
358.10 0.6222
358.20 0.6226
358.30 0.623
358.40 0.6234
358.50 0.6239
358.60 0.6243
358.70 0.6247
358.80 0.6251
358.90 0.6256
359.00 0.626
359.10 0.6264
359.20 0.6268
359.30 0.6273
359.40 0.6277
359.50 0.6281
359.60 0.6285
359.70 0.6289
359.80 0.6294
359.90 0.6298
360.00 0.6302
360.10 0.6306
360.20 0.631
360.30 0.6315
360.40 0.6319
360.50 0.6323
360.60 0.6327
360.70 0.6331
360.80 0.6336
360.90 0.634
361.00 0.6344
361.10 0.6348
361.20 0.6352
361.30 0.6357
361.40 0.6361
361.50 0.6365
361.60 0.6369
361.70 0.6373
361.80 0.6377
361.90 0.6382
362.00 0.6386
362.10 0.639
362.20 0.6394
362.30 0.6398
362.40 0.6402
362.50 0.6407
362.60 0.6411
362.70 0.6415
362.80 0.6419
362.90 0.6423
363.00 0.6427
363.10 0.6431
363.20 0.6436
363.30 0.644
363.40 0.6444
363.50 0.6448
363.60 0.6452
363.70 0.6456
363.80 0.6461
363.90 0.6465
364.00 0.6469
364.10 0.6473
364.20 0.6477
364.30 0.6481
364.40 0.6485
364.50 0.6489
364.60 0.6494
364.70 0.6498
364.80 0.6502
364.90 0.6506
365.00 0.651
365.10 0.6514
365.20 0.6518
365.30 0.6522
365.40 0.6527
365.50 0.6531
365.60 0.6535
365.70 0.6539
365.80 0.6543
365.90 0.6547
366.00 0.6551
366.10 0.6555
366.20 0.6559
366.30 0.6564
366.40 0.6568
366.50 0.6572
366.60 0.6576
366.70 0.658
366.80 0.6584
366.90 0.6588
367.00 0.6592
367.10 0.6596
367.20 0.66
367.30 0.6605
367.40 0.6609
367.50 0.6613
367.60 0.6617
367.70 0.6621
367.80 0.6625
367.90 0.6629
368.00 0.6633
368.10 0.6637
368.20 0.6641
368.30 0.6645
368.40 0.6649
368.50 0.6653
368.60 0.6657
368.70 0.6661
368.80 0.6666
368.90 0.667
369.00 0.6674
369.10 0.6678
369.20 0.6682
369.30 0.6686
369.40 0.669
369.50 0.6694
369.60 0.6698
369.70 0.6702
369.80 0.6706
369.90 0.671
370.00 0.6714
370.10 0.6718
370.20 0.6722
370.30 0.6726
370.40 0.673
370.50 0.6734
370.60 0.6738
370.70 0.6742
370.80 0.6746
370.90 0.675
371.00 0.6754
371.10 0.6758
371.20 0.6762
371.30 0.6766
371.40 0.677
371.50 0.6774
371.60 0.6778
371.70 0.6782
371.80 0.6786
371.90 0.679
372.00 0.6794
372.10 0.6798
372.20 0.6802
372.30 0.6806
372.40 0.681
372.50 0.6814
372.60 0.6818
372.70 0.6822
372.80 0.6826
372.90 0.683
373.00 0.6834
373.10 0.6838
373.20 0.6842
373.30 0.6846
373.40 0.685
373.50 0.6854
373.60 0.6858
373.70 0.6862
373.80 0.6866
373.90 0.687
374.00 0.6874
374.10 0.6878
374.20 0.6882
374.30 0.6886
374.40 0.689
374.50 0.6893
374.60 0.6897
374.70 0.6901
374.80 0.6905
374.90 0.6909
375.00 0.6913
375.10 0.6917
375.20 0.6921
375.30 0.6925
375.40 0.6929
375.50 0.6933
375.60 0.6937
375.70 0.6941
375.80 0.6945
375.90 0.6948
376.00 0.6952
376.10 0.6956
376.20 0.696
376.30 0.6964
376.40 0.6968
376.50 0.6972
376.60 0.6976
376.70 0.698
376.80 0.6984
376.90 0.6988
377.00 0.6992
377.10 0.6996
377.20 0.6999
377.30 0.7003
377.40 0.7007
377.50 0.7011
377.60 0.7015
377.70 0.7019
377.80 0.7023
377.90 0.7026
378.00 0.703
378.10 0.7034
378.20 0.7038
378.30 0.7042
378.40 0.7046
378.50 0.705
378.60 0.7054
378.70 0.7057
378.80 0.7061
378.90 0.7065
379.00 0.7069
379.10 0.7073
379.20 0.7077
379.30 0.708
379.40 0.7084
379.50 0.7088
379.60 0.7092
379.70 0.7096
379.80 0.71
379.90 0.7103
380.00 0.7107
380.10 0.7111
380.20 0.7115
380.30 0.7119
380.40 0.7123
380.50 0.7126
380.60 0.713
380.70 0.7134
380.80 0.7138
380.90 0.7142
381.00 0.7146
381.10 0.7149
381.20 0.7153
381.30 0.7157
381.40 0.7161
381.50 0.7164
381.60 0.7168
381.70 0.7172
381.80 0.7176
381.90 0.718
382.00 0.7184
382.10 0.7187
382.20 0.7191
382.30 0.7195
382.40 0.7198
382.50 0.7202
382.60 0.7206
382.70 0.721
382.80 0.7213
382.90 0.7217
383.00 0.7221
383.10 0.7225
383.20 0.7228
383.30 0.7232
383.40 0.7236
383.50 0.7239
383.60 0.7243
383.70 0.7247
383.80 0.7251
383.90 0.7255
384.00 0.7259
384.10 0.7262
384.20 0.7267
384.30 0.727
384.40 0.7274
384.50 0.7278
384.60 0.7282
384.70 0.7285
384.80 0.7289
384.90 0.7293
385.00 0.7296
385.10 0.73
385.20 0.7304
385.30 0.7308
385.40 0.7312
385.50 0.7315
385.60 0.7319
385.70 0.7322
385.80 0.7326
385.90 0.733
386.00 0.7333
386.10 0.7337
386.20 0.7341
386.30 0.7344
386.40 0.7348
386.50 0.7352
386.60 0.7356
386.70 0.7359
386.80 0.7363
386.90 0.7367
387.00 0.737
387.10 0.7374
387.20 0.7378
387.30 0.7381
387.40 0.7385
387.50 0.7389
387.60 0.7392
387.70 0.7396
387.80 0.74
387.90 0.7403
388.00 0.7407
388.10 0.7411
388.20 0.7414
388.30 0.7418
388.40 0.7421
388.50 0.7424
388.60 0.7427
388.70 0.743
388.80 0.7431
388.90 0.7433
389.00 0.7439
389.10 0.7444
389.20 0.7449
389.30 0.7453
389.40 0.7458
389.50 0.7462
389.60 0.7465
389.70 0.7469
389.80 0.7473
389.90 0.7476
390.00 0.748
390.10 0.7484
390.20 0.7487
390.30 0.7491
390.40 0.7495
390.50 0.7498
390.60 0.7502
390.70 0.7505
390.80 0.7509
390.90 0.7513
391.00 0.7516
391.10 0.752
391.20 0.7523
391.30 0.7527
391.40 0.7531
391.50 0.7535
391.60 0.7538
391.70 0.7541
391.80 0.7545
391.90 0.7548
392.00 0.7552
392.10 0.7556
392.20 0.7559
392.30 0.7563
392.40 0.7566
392.50 0.757
392.60 0.7574
392.70 0.7577
392.80 0.7581
392.90 0.7584
393.00 0.7588
393.10 0.7591
393.20 0.7595
393.30 0.7598
393.40 0.7602
393.50 0.7606
393.60 0.7609
393.70 0.7613
393.80 0.7616
393.90 0.762
394.00 0.7623
394.10 0.7627
394.20 0.763
394.30 0.7634
394.40 0.7637
394.50 0.7641
394.60 0.7644
394.70 0.7648
394.80 0.7651
394.90 0.7655
395.00 0.7658
395.10 0.7662
395.20 0.7666
395.30 0.7669
395.40 0.7672
395.50 0.7675
395.60 0.7679
395.70 0.7683
395.80 0.7686
395.90 0.7689
396.00 0.7692
396.10 0.7696
396.20 0.7699
396.30 0.7702
396.40 0.7705
396.50 0.7707
396.60 0.7709
396.70 0.7711
396.80 0.7711
396.90 0.7709
397.00 0.7705
397.10 0.7715
397.20 0.7724
397.30 0.7731
397.40 0.7737
397.50 0.7742
397.60 0.7746
397.70 0.775
397.80 0.7754
397.90 0.7758
398.00 0.7762
398.10 0.7765
398.20 0.7769
398.30 0.7773
398.40 0.7776
398.50 0.7779
398.60 0.7783
398.70 0.7786
398.80 0.779
398.90 0.7793
399.00 0.7797
399.10 0.78
399.20 0.7803
399.30 0.7807
399.40 0.781
399.50 0.7814
399.60 0.7817
399.70 0.782
399.80 0.7824
399.90 0.7827
400.00 0.7831
400.10 0.7834
400.20 0.7838
400.30 0.7841
400.40 0.7844
400.50 0.7848
400.60 0.7851
400.70 0.7855
400.80 0.7858
400.90 0.7861
401.00 0.7865
401.10 0.7868
401.20 0.7872
401.30 0.7875
401.40 0.7878
401.50 0.7881
401.60 0.7885
401.70 0.7888
401.80 0.7892
401.90 0.7895
402.00 0.7898
402.10 0.7902
402.20 0.7905
402.30 0.7908
402.40 0.7911
402.50 0.7915
402.60 0.7918
402.70 0.7922
402.80 0.7925
402.90 0.7928
403.00 0.7932
403.10 0.7935
403.20 0.7938
403.30 0.7941
403.40 0.7945
403.50 0.7948
403.60 0.7951
403.70 0.7955
403.80 0.7958
403.90 0.7961
404.00 0.7965
404.10 0.7968
404.20 0.7971
404.30 0.7974
404.40 0.7977
404.50 0.7981
404.60 0.7984
404.70 0.7987
404.80 0.7991
404.90 0.7994
405.00 0.7997
405.10 0.8001
405.20 0.8004
405.30 0.8007
405.40 0.801
405.50 0.8014
405.60 0.8017
405.70 0.802
405.80 0.8023
405.90 0.8027
406.00 0.803
406.10 0.8033
406.20 0.8036
406.30 0.804
406.40 0.8043
406.50 0.8046
406.60 0.8049
406.70 0.8053
406.80 0.8056
406.90 0.8059
407.00 0.8062
407.10 0.8065
407.20 0.8068
407.30 0.8071
407.40 0.8075
407.50 0.8078
407.60 0.8081
407.70 0.8084
407.80 0.8087
407.90 0.809
408.00 0.8094
408.10 0.8097
408.20 0.81
408.30 0.8103
408.40 0.8106
408.50 0.8109
408.60 0.8113
408.70 0.8116
408.80 0.8118
408.90 0.8121
409.00 0.8124
409.10 0.8127
409.20 0.813
409.30 0.8132
409.40 0.8134
409.50 0.8136
409.60 0.8138
409.70 0.8138
409.80 0.8137
409.90 0.8134
410.00 0.8124
410.10 0.8114
410.20 0.8103
410.30 0.8126
410.40 0.8144
410.50 0.8157
410.60 0.8165
410.70 0.8171
410.80 0.8177
410.90 0.8181
411.00 0.8185
411.10 0.8189
411.20 0.8193
411.30 0.8196
411.40 0.82
411.50 0.8203
411.60 0.8206
411.70 0.821
411.80 0.8213
411.90 0.8216
412.00 0.8219
412.10 0.8222
412.20 0.8226
412.30 0.8229
412.40 0.8232
412.50 0.8235
412.60 0.8238
412.70 0.8241
412.80 0.8245
412.90 0.8248
413.00 0.825
413.10 0.8254
413.20 0.8257
413.30 0.826
413.40 0.8263
413.50 0.8266
413.60 0.8269
413.70 0.8272
413.80 0.8275
413.90 0.8278
414.00 0.8281
414.10 0.8285
414.20 0.8288
414.30 0.829
414.40 0.8293
414.50 0.8297
414.60 0.83
414.70 0.8303
414.80 0.8306
414.90 0.8309
415.00 0.8312
415.10 0.8315
415.20 0.8318
415.30 0.8321
415.40 0.8324
415.50 0.8327
415.60 0.833
415.70 0.8333
415.80 0.8336
415.90 0.8339
416.00 0.8342
416.10 0.8345
416.20 0.8348
416.30 0.8351
416.40 0.8354
416.50 0.8357
416.60 0.836
416.70 0.8363
416.80 0.8366
416.90 0.8369
417.00 0.8372
417.10 0.8375
417.20 0.8378
417.30 0.8381
417.40 0.8384
417.50 0.8386
417.60 0.8389
417.70 0.8393
417.80 0.8395
417.90 0.8398
418.00 0.8402
418.10 0.8404
418.20 0.8407
418.30 0.841
418.40 0.8413
418.50 0.8416
418.60 0.8419
418.70 0.8422
418.80 0.8425
418.90 0.8428
419.00 0.8431
419.10 0.8434
419.20 0.8436
419.30 0.8439
419.40 0.8442
419.50 0.8445
419.60 0.8448
419.70 0.8451
419.80 0.8454
419.90 0.8457
420.00 0.846
420.10 0.8462
420.20 0.8466
420.30 0.8468
420.40 0.8471
420.50 0.8474
420.60 0.8477
420.70 0.848
420.80 0.8483
420.90 0.8486
421.00 0.8489
421.10 0.8492
421.20 0.8494
421.30 0.8497
421.40 0.85
421.50 0.8503
421.60 0.8506
421.70 0.8509
421.80 0.8511
421.90 0.8514
422.00 0.8517
422.10 0.852
422.20 0.8523
422.30 0.8526
422.40 0.8529
422.50 0.8531
422.60 0.8534
422.70 0.8537
422.80 0.854
422.90 0.8543
423.00 0.8546
423.10 0.8549
423.20 0.8551
423.30 0.8554
423.40 0.8557
423.50 0.856
423.60 0.8563
423.70 0.8565
423.80 0.8568
423.90 0.8571
424.00 0.8573
424.10 0.8576
424.20 0.8579
424.30 0.8582
424.40 0.8585
424.50 0.8588
424.60 0.859
424.70 0.8593
424.80 0.8596
424.90 0.8599
425.00 0.8601
425.10 0.8604
425.20 0.8607
425.30 0.861
425.40 0.8612
425.50 0.8615
425.60 0.8618
425.70 0.8621
425.80 0.8623
425.90 0.8626
426.00 0.8629
426.10 0.8632
426.20 0.8634
426.30 0.8637
426.40 0.864
426.50 0.8643
426.60 0.8646
426.70 0.8648
426.80 0.8651
426.90 0.8654
427.00 0.8656
427.10 0.8659
427.20 0.8662
427.30 0.8664
427.40 0.8667
427.50 0.867
427.60 0.8673
427.70 0.8676
427.80 0.8678
427.90 0.8681
428.00 0.8683
428.10 0.8686
428.20 0.8689
428.30 0.8691
428.40 0.8694
428.50 0.8697
428.60 0.87
428.70 0.8702
428.80 0.8705
428.90 0.8707
429.00 0.871
429.10 0.8713
429.20 0.8716
429.30 0.8718
429.40 0.8721
429.50 0.8723
429.60 0.8726
429.70 0.8729
429.80 0.8731
429.90 0.8734
430.00 0.8737
430.10 0.8739
430.20 0.8742
430.30 0.8744
430.40 0.8747
430.50 0.875
430.60 0.8753
430.70 0.8755
430.80 0.8757
430.90 0.876
431.00 0.8763
431.10 0.8765
431.20 0.8768
431.30 0.877
431.40 0.8773
431.50 0.8776
431.60 0.8778
431.70 0.878
431.80 0.8783
431.90 0.8786
432.00 0.8788
432.10 0.879
432.20 0.8793
432.30 0.8795
432.40 0.8798
432.50 0.88
432.60 0.8802
432.70 0.8804
432.80 0.8806
432.90 0.8808
433.00 0.881
433.10 0.8812
433.20 0.8813
433.30 0.8813
433.40 0.8812
433.50 0.881
433.60 0.8806
433.70 0.8795
433.80 0.8775
433.90 0.8745
434.00 0.8685
434.10 0.8689
434.20 0.8757
434.30 0.879
434.40 0.8814
434.50 0.883
434.60 0.8838
434.70 0.8846
434.80 0.8851
434.90 0.8856
435.00 0.886
435.10 0.8864
435.20 0.8867
435.30 0.887
435.40 0.8873
435.50 0.8876
435.60 0.8879
435.70 0.8882
435.80 0.8884
435.90 0.8887
436.00 0.889
436.10 0.8892
436.20 0.8895
436.30 0.8898
436.40 0.89
436.50 0.8903
436.60 0.8905
436.70 0.8908
436.80 0.8911
436.90 0.8913
437.00 0.8916
437.10 0.8918
437.20 0.8921
437.30 0.8923
437.40 0.8926
437.50 0.8928
437.60 0.8931
437.70 0.8933
437.80 0.8935
437.90 0.8938
438.00 0.894
438.10 0.8943
438.20 0.8945
438.30 0.8948
438.40 0.895
438.50 0.8953
438.60 0.8955
438.70 0.8957
438.80 0.896
438.90 0.8962
439.00 0.8965
439.10 0.8967
439.20 0.897
439.30 0.8972
439.40 0.8975
439.50 0.8977
439.60 0.898
439.70 0.8982
439.80 0.8985
439.90 0.8987
440.00 0.8989
440.10 0.8992
440.20 0.8994
440.30 0.8996
440.40 0.8999
440.50 0.9001
440.60 0.9004
440.70 0.9006
440.80 0.9008
440.90 0.9011
441.00 0.9013
441.10 0.9015
441.20 0.9018
441.30 0.902
441.40 0.9022
441.50 0.9025
441.60 0.9027
441.70 0.9029
441.80 0.9032
441.90 0.9034
442.00 0.9036
442.10 0.9039
442.20 0.9041
442.30 0.9043
442.40 0.9046
442.50 0.9049
442.60 0.9051
442.70 0.9053
442.80 0.9056
442.90 0.9058
443.00 0.906
443.10 0.9062
443.20 0.9065
443.30 0.9067
443.40 0.9069
443.50 0.9072
443.60 0.9074
443.70 0.9076
443.80 0.9078
443.90 0.9081
444.00 0.9083
444.10 0.9085
444.20 0.9088
444.30 0.909
444.40 0.9093
444.50 0.9095
444.60 0.9097
444.70 0.9099
444.80 0.9102
444.90 0.9104
445.00 0.9106
445.10 0.9108
445.20 0.911
445.30 0.9113
445.40 0.9115
445.50 0.9117
445.60 0.9119
445.70 0.9122
445.80 0.9124
445.90 0.9127
446.00 0.9129
446.10 0.9131
446.20 0.9133
446.30 0.9135
446.40 0.9138
446.50 0.914
446.60 0.9142
446.70 0.9144
446.80 0.9146
446.90 0.9149
447.00 0.9151
447.10 0.9153
447.20 0.9156
447.30 0.9158
447.40 0.916
447.50 0.9162
447.60 0.9164
447.70 0.9166
447.80 0.9169
447.90 0.9171
448.00 0.9173
448.10 0.9176
448.20 0.9178
448.30 0.918
448.40 0.9182
448.50 0.9184
448.60 0.9186
448.70 0.9188
448.80 0.919
448.90 0.9193
449.00 0.9195
449.10 0.9197
449.20 0.9199
449.30 0.9202
449.40 0.9204
449.50 0.9206
449.60 0.9208
449.70 0.921
449.80 0.9212
449.90 0.9215
450.00 0.9217
450.10 0.9219
450.20 0.9221
450.30 0.9223
450.40 0.9225
450.50 0.9227
450.60 0.9229
450.70 0.9232
450.80 0.9234
450.90 0.9236
451.00 0.9238
451.10 0.924
451.20 0.9242
451.30 0.9244
451.40 0.9246
451.50 0.9249
451.60 0.9251
451.70 0.9253
451.80 0.9255
451.90 0.9257
452.00 0.9259
452.10 0.9261
452.20 0.9263
452.30 0.9266
452.40 0.9268
452.50 0.927
452.60 0.9272
452.70 0.9274
452.80 0.9276
452.90 0.9278
453.00 0.928
453.10 0.9282
453.20 0.9284
453.30 0.9286
453.40 0.9288
453.50 0.929
453.60 0.9293
453.70 0.9295
453.80 0.9297
453.90 0.9299
454.00 0.9301
454.10 0.9303
454.20 0.9305
454.30 0.9307
454.40 0.9309
454.50 0.9311
454.60 0.9313
454.70 0.9315
454.80 0.9317
454.90 0.9319
455.00 0.9321
455.10 0.9323
455.20 0.9325
455.30 0.9327
455.40 0.9329
455.50 0.9331
455.60 0.9333
455.70 0.9335
455.80 0.9337
455.90 0.9339
456.00 0.9341
456.10 0.9343
456.20 0.9345
456.30 0.9347
456.40 0.9349
456.50 0.9351
456.60 0.9353
456.70 0.9355
456.80 0.9357
456.90 0.9359
457.00 0.9361
457.10 0.9363
457.20 0.9365
457.30 0.9367
457.40 0.9369
457.50 0.9371
457.60 0.9373
457.70 0.9375
457.80 0.9377
457.90 0.9379
458.00 0.9381
458.10 0.9383
458.20 0.9385
458.30 0.9387
458.40 0.9389
458.50 0.9391
458.60 0.9393
458.70 0.9395
458.80 0.9397
458.90 0.9398
459.00 0.94
459.10 0.9402
459.20 0.9404
459.30 0.9406
459.40 0.9408
459.50 0.941
459.60 0.9412
459.70 0.9414
459.80 0.9416
459.90 0.9418
460.00 0.942
460.10 0.9421
460.20 0.9423
460.30 0.9425
460.40 0.9427
460.50 0.9429
460.60 0.9431
460.70 0.9433
460.80 0.9435
460.90 0.9437
461.00 0.9439
461.10 0.9441
461.20 0.9443
461.30 0.9444
461.40 0.9446
461.50 0.9448
461.60 0.945
461.70 0.9452
461.80 0.9454
461.90 0.9456
462.00 0.9457
462.10 0.9459
462.20 0.9461
462.30 0.9463
462.40 0.9465
462.50 0.9467
462.60 0.9468
462.70 0.947
462.80 0.9472
462.90 0.9474
463.00 0.9476
463.10 0.9477
463.20 0.9479
463.30 0.9481
463.40 0.9483
463.50 0.9485
463.60 0.9487
463.70 0.9489
463.80 0.949
463.90 0.9492
464.00 0.9494
464.10 0.9496
464.20 0.9498
464.30 0.95
464.40 0.9501
464.50 0.9503
464.60 0.9505
464.70 0.9507
464.80 0.9508
464.90 0.951
465.00 0.9512
465.10 0.9514
465.20 0.9516
465.30 0.9517
465.40 0.9519
465.50 0.9521
465.60 0.9523
465.70 0.9525
465.80 0.9526
465.90 0.9528
466.00 0.953
466.10 0.9532
466.20 0.9533
466.30 0.9535
466.40 0.9537
466.50 0.9539
466.60 0.954
466.70 0.9542
466.80 0.9544
466.90 0.9546
467.00 0.9547
467.10 0.9549
467.20 0.9551
467.30 0.9553
467.40 0.9554
467.50 0.9556
467.60 0.9558
467.70 0.956
467.80 0.9561
467.90 0.9563
468.00 0.9565
468.10 0.9567
468.20 0.9568
468.30 0.957
468.40 0.9572
468.50 0.9573
468.60 0.9575
468.70 0.9577
468.80 0.9578
468.90 0.958
469.00 0.9582
469.10 0.9583
469.20 0.9585
469.30 0.9587
469.40 0.9588
469.50 0.959
469.60 0.9592
469.70 0.9593
469.80 0.9595
469.90 0.9597
470.00 0.9598
470.10 0.96
470.20 0.9602
470.30 0.9603
470.40 0.9605
470.50 0.9607
470.60 0.9609
470.70 0.961
470.80 0.9612
470.90 0.9614
471.00 0.9615
471.10 0.9617
471.20 0.9618
471.30 0.962
471.40 0.9622
471.50 0.9623
471.60 0.9625
471.70 0.9627
471.80 0.9628
471.90 0.963
472.00 0.9632
472.10 0.9633
472.20 0.9635
472.30 0.9637
472.40 0.9638
472.50 0.964
472.60 0.9641
472.70 0.9643
472.80 0.9645
472.90 0.9646
473.00 0.9648
473.10 0.9649
473.20 0.9651
473.30 0.9653
473.40 0.9654
473.50 0.9656
473.60 0.9657
473.70 0.9659
473.80 0.966
473.90 0.9662
474.00 0.9664
474.10 0.9665
474.20 0.9667
474.30 0.9668
474.40 0.967
474.50 0.9671
474.60 0.9673
474.70 0.9675
474.80 0.9676
474.90 0.9678
475.00 0.9679
475.10 0.9681
475.20 0.9683
475.30 0.9684
475.40 0.9686
475.50 0.9687
475.60 0.9689
475.70 0.969
475.80 0.9692
475.90 0.9693
476.00 0.9695
476.10 0.9696
476.20 0.9698
476.30 0.9699
476.40 0.9701
476.50 0.9702
476.60 0.9704
476.70 0.9705
476.80 0.9707
476.90 0.9708
477.00 0.971
477.10 0.9711
477.20 0.9713
477.30 0.9714
477.40 0.9716
477.50 0.9717
477.60 0.9719
477.70 0.9721
477.80 0.9722
477.90 0.9724
478.00 0.9725
478.10 0.9727
478.20 0.9728
478.30 0.973
478.40 0.9731
478.50 0.9732
478.60 0.9734
478.70 0.9735
478.80 0.9737
478.90 0.9738
479.00 0.974
479.10 0.9741
479.20 0.9743
479.30 0.9744
479.40 0.9746
479.50 0.9747
479.60 0.9748
479.70 0.975
479.80 0.9751
479.90 0.9753
480.00 0.9754
480.10 0.9755
480.20 0.9757
480.30 0.9758
480.40 0.976
480.50 0.9761
480.60 0.9762
480.70 0.9764
480.80 0.9765
480.90 0.9767
481.00 0.9768
481.10 0.9769
481.20 0.9771
481.30 0.9772
481.40 0.9774
481.50 0.9775
481.60 0.9777
481.70 0.9778
481.80 0.9779
481.90 0.9781
482.00 0.9782
482.10 0.9783
482.20 0.9785
482.30 0.9786
482.40 0.9787
482.50 0.9789
482.60 0.979
482.70 0.9791
482.80 0.9793
482.90 0.9794
483.00 0.9795
483.10 0.9797
483.20 0.9798
483.30 0.9799
483.40 0.98
483.50 0.9801
483.60 0.9802
483.70 0.9803
483.80 0.9805
483.90 0.9806
484.00 0.9807
484.10 0.9808
484.20 0.9809
484.30 0.981
484.40 0.981
484.50 0.9811
484.60 0.9812
484.70 0.9812
484.80 0.9811
484.90 0.9811
485.00 0.9811
485.10 0.981
485.20 0.9808
485.30 0.9805
485.40 0.98
485.50 0.9793
485.60 0.9779
485.70 0.9761
485.80 0.9717
485.90 0.9661
486.00 0.9554
486.10 0.9347
486.20 0.9429
486.30 0.9607
486.40 0.9686
486.50 0.9746
486.60 0.9779
486.70 0.98
486.80 0.9813
486.90 0.9823
487.00 0.9829
487.10 0.9835
487.20 0.9839
487.30 0.9841
487.40 0.9844
487.50 0.9847
487.60 0.985
487.70 0.9853
487.80 0.9854
487.90 0.9856
488.00 0.9858
488.10 0.986
488.20 0.9862
488.30 0.9863
488.40 0.9865
488.50 0.9866
488.60 0.9868
488.70 0.9869
488.80 0.987
488.90 0.9872
489.00 0.9873
489.10 0.9875
489.20 0.9876
489.30 0.9878
489.40 0.9879
489.50 0.988
489.60 0.9882
489.70 0.9883
489.80 0.9884
489.90 0.9886
490.00 0.9887
490.10 0.9888
490.20 0.989
490.30 0.9891
490.40 0.9892
490.50 0.9893
490.60 0.9894
490.70 0.9896
490.80 0.9897
490.90 0.9898
491.00 0.9899
491.10 0.9901
491.20 0.9902
491.30 0.9903
491.40 0.9904
491.50 0.9906
491.60 0.9907
491.70 0.9908
491.80 0.9909
491.90 0.991
492.00 0.9912
492.10 0.9913
492.20 0.9914
492.30 0.9915
492.40 0.9916
492.50 0.9918
492.60 0.9919
492.70 0.992
492.80 0.9921
492.90 0.9922
493.00 0.9923
493.10 0.9925
493.20 0.9926
493.30 0.9927
493.40 0.9928
493.50 0.9929
493.60 0.993
493.70 0.9932
493.80 0.9933
493.90 0.9934
494.00 0.9935
494.10 0.9936
494.20 0.9937
494.30 0.9938
494.40 0.994
494.50 0.9941
494.60 0.9942
494.70 0.9943
494.80 0.9944
494.90 0.9945
495.00 0.9946
495.10 0.9948
495.20 0.9949
495.30 0.995
495.40 0.9951
495.50 0.9952
495.60 0.9953
495.70 0.9954
495.80 0.9955
495.90 0.9956
496.00 0.9958
496.10 0.9959
496.20 0.996
496.30 0.9961
496.40 0.9962
496.50 0.9963
496.60 0.9964
496.70 0.9965
496.80 0.9966
496.90 0.9967
497.00 0.9968
497.10 0.9969
497.20 0.9971
497.30 0.9972
497.40 0.9973
497.50 0.9974
497.60 0.9975
497.70 0.9976
497.80 0.9977
497.90 0.9978
498.00 0.9979
498.10 0.998
498.20 0.9981
498.30 0.9982
498.40 0.9983
498.50 0.9984
498.60 0.9985
498.70 0.9986
498.80 0.9988
498.90 0.9989
499.00 0.999
499.10 0.9991
499.20 0.9992
499.30 0.9993
499.40 0.9994
499.50 0.9995
499.60 0.9996
499.70 0.9997
499.80 0.9998
499.90 0.9999
500.00 1
500.10 1
500.20 1
500.30 1
500.40 1
500.50 1
500.60 1.001
500.70 1.001
500.80 1.001
500.90 1.001
501.00 1.001
501.10 1.001
501.20 1.001
501.30 1.001
501.40 1.001
501.50 1.001
501.60 1.002
501.70 1.002
501.80 1.002
501.90 1.002
502.00 1.002
502.10 1.002
502.20 1.002
502.30 1.002
502.40 1.002
502.50 1.002
502.60 1.003
502.70 1.003
502.80 1.003
502.90 1.003
503.00 1.003
503.10 1.003
503.20 1.003
503.30 1.003
503.40 1.003
503.50 1.003
503.60 1.004
503.70 1.004
503.80 1.004
503.90 1.004
504.00 1.004
504.10 1.004
504.20 1.004
504.30 1.004
504.40 1.004
504.50 1.004
504.60 1.004
504.70 1.005
504.80 1.005
504.90 1.005
505.00 1.005
505.10 1.005
505.20 1.005
505.30 1.005
505.40 1.005
505.50 1.005
505.60 1.005
505.70 1.005
505.80 1.006
505.90 1.006
506.00 1.006
506.10 1.006
506.20 1.006
506.30 1.006
506.40 1.006
506.50 1.006
506.60 1.006
506.70 1.006
506.80 1.006
506.90 1.006
507.00 1.007
507.10 1.007
507.20 1.007
507.30 1.007
507.40 1.007
507.50 1.007
507.60 1.007
507.70 1.007
507.80 1.007
507.90 1.007
508.00 1.007
508.10 1.008
508.20 1.008
508.30 1.008
508.40 1.008
508.50 1.008
508.60 1.008
508.70 1.008
508.80 1.008
508.90 1.008
509.00 1.008
509.10 1.008
509.20 1.008
509.30 1.009
509.40 1.009
509.50 1.009
509.60 1.009
509.70 1.009
509.80 1.009
509.90 1.009
510.00 1.009
510.10 1.009
510.20 1.009
510.30 1.009
510.40 1.009
510.50 1.01
510.60 1.01
510.70 1.01
510.80 1.01
510.90 1.01
511.00 1.01
511.10 1.01
511.20 1.01
511.30 1.01
511.40 1.01
511.50 1.01
511.60 1.01
511.70 1.01
511.80 1.011
511.90 1.011
512.00 1.011
512.10 1.011
512.20 1.011
512.30 1.011
512.40 1.011
512.50 1.011
512.60 1.011
512.70 1.011
512.80 1.011
512.90 1.011
513.00 1.012
513.10 1.012
513.20 1.012
513.30 1.012
513.40 1.012
513.50 1.012
513.60 1.012
513.70 1.012
513.80 1.012
513.90 1.012
514.00 1.012
514.10 1.012
514.20 1.012
514.30 1.012
514.40 1.013
514.50 1.013
514.60 1.013
514.70 1.013
514.80 1.013
514.90 1.013
515.00 1.013
515.10 1.013
515.20 1.013
515.30 1.013
515.40 1.013
515.50 1.013
515.60 1.013
515.70 1.013
515.80 1.014
515.90 1.014
516.00 1.014
516.10 1.014
516.20 1.014
516.30 1.014
516.40 1.014
516.50 1.014
516.60 1.014
516.70 1.014
516.80 1.014
516.90 1.014
517.00 1.014
517.10 1.014
517.20 1.014
517.30 1.015
517.40 1.015
517.50 1.015
517.60 1.015
517.70 1.015
517.80 1.015
517.90 1.015
518.00 1.015
518.10 1.015
518.20 1.015
518.30 1.015
518.40 1.015
518.50 1.015
518.60 1.015
518.70 1.015
518.80 1.016
518.90 1.016
519.00 1.016
519.10 1.016
519.20 1.016
519.30 1.016
519.40 1.016
519.50 1.016
519.60 1.016
519.70 1.016
519.80 1.016
519.90 1.016
520.00 1.016
520.10 1.016
520.20 1.016
520.30 1.016
520.40 1.017
520.50 1.017
520.60 1.017
520.70 1.017
520.80 1.017
520.90 1.017
521.00 1.017
521.10 1.017
521.20 1.017
521.30 1.017
521.40 1.017
521.50 1.017
521.60 1.017
521.70 1.017
521.80 1.017
521.90 1.017
522.00 1.018
522.10 1.018
522.20 1.018
522.30 1.018
522.40 1.018
522.50 1.018
522.60 1.018
522.70 1.018
522.80 1.018
522.90 1.018
523.00 1.018
523.10 1.018
523.20 1.018
523.30 1.018
523.40 1.018
523.50 1.018
523.60 1.018
523.70 1.019
523.80 1.019
523.90 1.019
524.00 1.019
524.10 1.019
524.20 1.019
524.30 1.019
524.40 1.019
524.50 1.019
524.60 1.019
524.70 1.019
524.80 1.019
524.90 1.019
525.00 1.019
525.10 1.019
525.20 1.019
525.30 1.019
525.40 1.019
525.50 1.019
525.60 1.02
525.70 1.02
525.80 1.02
525.90 1.02
526.00 1.02
526.10 1.02
526.20 1.02
526.30 1.02
526.40 1.02
526.50 1.02
526.60 1.02
526.70 1.02
526.80 1.02
526.90 1.02
527.00 1.02
527.10 1.02
527.20 1.02
527.30 1.02
527.40 1.02
527.50 1.021
527.60 1.021
527.70 1.021
527.80 1.021
527.90 1.021
528.00 1.021
528.10 1.021
528.20 1.021
528.30 1.021
528.40 1.021
528.50 1.021
528.60 1.021
528.70 1.021
528.80 1.021
528.90 1.021
529.00 1.021
529.10 1.021
529.20 1.021
529.30 1.021
529.40 1.021
529.50 1.021
529.60 1.021
529.70 1.022
529.80 1.022
529.90 1.022
530.00 1.022
530.10 1.022
530.20 1.022
530.30 1.022
530.40 1.022
530.50 1.022
530.60 1.022
530.70 1.022
530.80 1.022
530.90 1.022
531.00 1.022
531.10 1.022
531.20 1.022
531.30 1.022
531.40 1.022
531.50 1.022
531.60 1.022
531.70 1.022
531.80 1.022
531.90 1.022
532.00 1.023
532.10 1.023
532.20 1.023
532.30 1.023
532.40 1.023
532.50 1.023
532.60 1.023
532.70 1.023
532.80 1.023
532.90 1.023
533.00 1.023
533.10 1.023
533.20 1.023
533.30 1.023
533.40 1.023
533.50 1.023
533.60 1.023
533.70 1.023
533.80 1.023
533.90 1.023
534.00 1.023
534.10 1.023
534.20 1.023
534.30 1.023
534.40 1.023
534.50 1.024
534.60 1.024
534.70 1.024
534.80 1.024
534.90 1.024
535.00 1.024
535.10 1.024
535.20 1.024
535.30 1.024
535.40 1.024
535.50 1.024
535.60 1.024
535.70 1.024
535.80 1.024
535.90 1.024
536.00 1.024
536.10 1.024
536.20 1.024
536.30 1.024
536.40 1.024
536.50 1.024
536.60 1.024
536.70 1.024
536.80 1.024
536.90 1.024
537.00 1.024
537.10 1.024
537.20 1.024
537.30 1.024
537.40 1.024
537.50 1.025
537.60 1.025
537.70 1.025
537.80 1.025
537.90 1.025
538.00 1.025
538.10 1.025
538.20 1.025
538.30 1.025
538.40 1.025
538.50 1.025
538.60 1.025
538.70 1.025
538.80 1.025
538.90 1.025
539.00 1.025
539.10 1.025
539.20 1.025
539.30 1.025
539.40 1.025
539.50 1.025
539.60 1.025
539.70 1.025
539.80 1.025
539.90 1.025
540.00 1.025
540.10 1.025
540.20 1.025
540.30 1.025
540.40 1.025
540.50 1.025
540.60 1.025
540.70 1.025
540.80 1.025
540.90 1.026
541.00 1.026
541.10 1.026
541.20 1.026
541.30 1.026
541.40 1.026
541.50 1.026
541.60 1.026
541.70 1.026
541.80 1.026
541.90 1.026
542.00 1.026
542.10 1.026
542.20 1.026
542.30 1.026
542.40 1.026
542.50 1.026
542.60 1.026
542.70 1.026
542.80 1.026
542.90 1.026
543.00 1.026
543.10 1.026
543.20 1.026
543.30 1.026
543.40 1.026
543.50 1.026
543.60 1.026
543.70 1.026
543.80 1.026
543.90 1.026
544.00 1.026
544.10 1.026
544.20 1.026
544.30 1.026
544.40 1.026
544.50 1.026
544.60 1.026
544.70 1.026
544.80 1.026
544.90 1.026
545.00 1.026
545.10 1.026
545.20 1.027
545.30 1.027
545.40 1.027
545.50 1.027
545.60 1.027
545.70 1.027
545.80 1.027
545.90 1.027
546.00 1.027
546.10 1.027
546.20 1.027
546.30 1.027
546.40 1.027
546.50 1.027
546.60 1.027
546.70 1.027
546.80 1.027
546.90 1.027
547.00 1.027
547.10 1.027
547.20 1.027
547.30 1.027
547.40 1.027
547.50 1.027
547.60 1.027
547.70 1.027
547.80 1.027
547.90 1.027
548.00 1.027
548.10 1.027
548.20 1.027
548.30 1.027
548.40 1.027
548.50 1.027
548.60 1.027
548.70 1.027
548.80 1.027
548.90 1.027
549.00 1.027
549.10 1.027
549.20 1.027
549.30 1.027
549.40 1.027
549.50 1.027
549.60 1.027
549.70 1.027
549.80 1.027
549.90 1.027
550.00 1.027
550.10 1.027
550.20 1.027
550.30 1.027
550.40 1.027
550.50 1.027
550.60 1.027
550.70 1.027
550.80 1.027
550.90 1.027
551.00 1.027
551.10 1.027
551.20 1.027
551.30 1.027
551.40 1.027
551.50 1.027
551.60 1.027
551.70 1.027
551.80 1.027
551.90 1.027
552.00 1.027
552.10 1.027
552.20 1.027
552.30 1.027
552.40 1.027
552.50 1.028
552.60 1.028
552.70 1.028
552.80 1.028
552.90 1.028
553.00 1.028
553.10 1.028
553.20 1.028
553.30 1.028
553.40 1.028
553.50 1.028
553.60 1.028
553.70 1.028
553.80 1.028
553.90 1.028
554.00 1.028
554.10 1.028
554.20 1.028
554.30 1.028
554.40 1.028
554.50 1.028
554.60 1.028
554.70 1.028
554.80 1.028
554.90 1.028
555.00 1.028
555.10 1.028
555.20 1.028
555.30 1.028
555.40 1.028
555.50 1.028
555.60 1.028
555.70 1.028
555.80 1.028
555.90 1.028
556.00 1.028
556.10 1.028
556.20 1.028
556.30 1.028
556.40 1.028
556.50 1.028
556.60 1.028
556.70 1.028
556.80 1.028
556.90 1.028
557.00 1.028
557.10 1.028
557.20 1.028
557.30 1.028
557.40 1.028
557.50 1.028
557.60 1.028
557.70 1.028
557.80 1.028
557.90 1.028
558.00 1.028
558.10 1.028
558.20 1.028
558.30 1.028
558.40 1.028
558.50 1.028
558.60 1.028
558.70 1.028
558.80 1.028
558.90 1.028
559.00 1.028
559.10 1.028
559.20 1.028
559.30 1.028
559.40 1.028
559.50 1.028
559.60 1.028
559.70 1.028
559.80 1.028
559.90 1.028
560.00 1.028
560.10 1.028
560.20 1.028
560.30 1.028
560.40 1.028
560.50 1.028
560.60 1.028
560.70 1.028
560.80 1.028
560.90 1.028
561.00 1.028
561.10 1.028
561.20 1.028
561.30 1.028
561.40 1.028
561.50 1.028
561.60 1.028
561.70 1.028
561.80 1.028
561.90 1.028
562.00 1.028
562.10 1.028
562.20 1.028
562.30 1.028
562.40 1.028
562.50 1.028
562.60 1.028
562.70 1.028
562.80 1.028
562.90 1.028
563.00 1.028
563.10 1.028
563.20 1.028
563.30 1.028
563.40 1.028
563.50 1.028
563.60 1.028
563.70 1.028
563.80 1.028
563.90 1.027
564.00 1.027
564.10 1.027
564.20 1.027
564.30 1.027
564.40 1.027
564.50 1.027
564.60 1.027
564.70 1.027
564.80 1.027
564.90 1.027
565.00 1.027
565.10 1.027
565.20 1.027
565.30 1.027
565.40 1.027
565.50 1.027
565.60 1.027
565.70 1.027
565.80 1.027
565.90 1.027
566.00 1.027
566.10 1.027
566.20 1.027
566.30 1.027
566.40 1.027
566.50 1.027
566.60 1.027
566.70 1.027
566.80 1.027
566.90 1.027
567.00 1.027
567.10 1.027
567.20 1.027
567.30 1.027
567.40 1.027
567.50 1.027
567.60 1.027
567.70 1.027
567.80 1.027
567.90 1.027
568.00 1.027
568.10 1.027
568.20 1.027
568.30 1.027
568.40 1.027
568.50 1.027
568.60 1.027
568.70 1.027
568.80 1.027
568.90 1.027
569.00 1.027
569.10 1.027
569.20 1.027
569.30 1.027
569.40 1.027
569.50 1.027
569.60 1.027
569.70 1.027
569.80 1.027
569.90 1.027
570.00 1.027
570.10 1.027
570.20 1.027
570.30 1.027
570.40 1.027
570.50 1.027
570.60 1.027
570.70 1.027
570.80 1.027
570.90 1.027
571.00 1.027
571.10 1.027
571.20 1.027
571.30 1.027
571.40 1.026
571.50 1.026
571.60 1.026
571.70 1.026
571.80 1.026
571.90 1.026
572.00 1.026
572.10 1.026
572.20 1.026
572.30 1.026
572.40 1.026
572.50 1.026
572.60 1.026
572.70 1.026
572.80 1.026
572.90 1.026
573.00 1.026
573.10 1.026
573.20 1.026
573.30 1.026
573.40 1.026
573.50 1.026
573.60 1.026
573.70 1.026
573.80 1.026
573.90 1.026
574.00 1.026
574.10 1.026
574.20 1.026
574.30 1.026
574.40 1.026
574.50 1.026
574.60 1.026
574.70 1.026
574.80 1.026
574.90 1.026
575.00 1.026
575.10 1.026
575.20 1.026
575.30 1.026
575.40 1.026
575.50 1.026
575.60 1.026
575.70 1.026
575.80 1.026
575.90 1.026
576.00 1.026
576.10 1.026
576.20 1.025
576.30 1.025
576.40 1.025
576.50 1.025
576.60 1.025
576.70 1.025
576.80 1.025
576.90 1.025
577.00 1.025
577.10 1.025
577.20 1.025
577.30 1.025
577.40 1.025
577.50 1.025
577.60 1.025
577.70 1.025
577.80 1.025
577.90 1.025
578.00 1.025
578.10 1.025
578.20 1.025
578.30 1.025
578.40 1.025
578.50 1.025
578.60 1.025
578.70 1.025
578.80 1.025
578.90 1.025
579.00 1.025
579.10 1.025
579.20 1.025
579.30 1.025
579.40 1.025
579.50 1.025
579.60 1.025
579.70 1.025
579.80 1.025
579.90 1.024
580.00 1.024
580.10 1.024
580.20 1.024
580.30 1.024
580.40 1.024
580.50 1.024
580.60 1.024
580.70 1.024
580.80 1.024
580.90 1.024
581.00 1.024
581.10 1.024
581.20 1.024
581.30 1.024
581.40 1.024
581.50 1.024
581.60 1.024
581.70 1.024
581.80 1.024
581.90 1.024
582.00 1.024
582.10 1.024
582.20 1.024
582.30 1.024
582.40 1.024
582.50 1.024
582.60 1.024
582.70 1.024
582.80 1.024
582.90 1.024
583.00 1.024
583.10 1.024
583.20 1.023
583.30 1.023
583.40 1.023
583.50 1.023
583.60 1.023
583.70 1.023
583.80 1.023
583.90 1.023
584.00 1.023
584.10 1.023
584.20 1.023
584.30 1.023
584.40 1.023
584.50 1.023
584.60 1.023
584.70 1.023
584.80 1.023
584.90 1.023
585.00 1.023
585.10 1.023
585.20 1.023
585.30 1.023
585.40 1.023
585.50 1.023
585.60 1.023
585.70 1.023
585.80 1.023
585.90 1.023
586.00 1.022
586.10 1.022
586.20 1.022
586.30 1.022
586.40 1.022
586.50 1.022
586.60 1.022
586.70 1.022
586.80 1.022
586.90 1.022
587.00 1.022
587.10 1.022
587.20 1.022
587.30 1.022
587.40 1.022
587.50 1.022
587.60 1.022
587.70 1.022
587.80 1.022
587.90 1.022
588.00 1.022
588.10 1.022
588.20 1.022
588.30 1.022
588.40 1.022
588.50 1.022
588.60 1.022
588.70 1.021
588.80 1.021
588.90 1.021
589.00 1.021
589.10 1.021
589.20 1.021
589.30 1.021
589.40 1.021
589.50 1.021
589.60 1.021
589.70 1.021
589.80 1.021
589.90 1.021
590.00 1.021
590.10 1.021
590.20 1.021
590.30 1.021
590.40 1.021
590.50 1.021
590.60 1.021
590.70 1.021
590.80 1.021
590.90 1.021
591.00 1.021
591.10 1.02
591.20 1.02
591.30 1.02
591.40 1.02
591.50 1.02
591.60 1.02
591.70 1.02
591.80 1.02
591.90 1.02
592.00 1.02
592.10 1.02
592.20 1.02
592.30 1.02
592.40 1.02
592.50 1.02
592.60 1.02
592.70 1.02
592.80 1.02
592.90 1.02
593.00 1.02
593.10 1.02
593.20 1.02
593.30 1.02
593.40 1.02
593.50 1.019
593.60 1.019
593.70 1.019
593.80 1.019
593.90 1.019
594.00 1.019
594.10 1.019
594.20 1.019
594.30 1.019
594.40 1.019
594.50 1.019
594.60 1.019
594.70 1.019
594.80 1.019
594.90 1.019
595.00 1.019
595.10 1.019
595.20 1.019
595.30 1.019
595.40 1.019
595.50 1.019
595.60 1.019
595.70 1.018
595.80 1.018
595.90 1.018
596.00 1.018
596.10 1.018
596.20 1.018
596.30 1.018
596.40 1.018
596.50 1.018
596.60 1.018
596.70 1.018
596.80 1.018
596.90 1.018
597.00 1.018
597.10 1.018
597.20 1.018
597.30 1.018
597.40 1.018
597.50 1.018
597.60 1.018
597.70 1.017
597.80 1.017
597.90 1.017
598.00 1.017
598.10 1.017
598.20 1.017
598.30 1.017
598.40 1.017
598.50 1.017
598.60 1.017
598.70 1.017
598.80 1.017
598.90 1.017
599.00 1.017
599.10 1.017
599.20 1.017
599.30 1.017
599.40 1.017
599.50 1.017
599.60 1.017
599.70 1.016
599.80 1.016
599.90 1.016
600.00 1.016
600.10 1.016
600.20 1.016
600.30 1.016
600.40 1.016
600.50 1.016
600.60 1.016
600.70 1.016
600.80 1.016
600.90 1.016
601.00 1.016
601.10 1.016
601.20 1.016
601.30 1.016
601.40 1.016
601.50 1.016
601.60 1.015
601.70 1.015
601.80 1.015
601.90 1.015
602.00 1.015
602.10 1.015
602.20 1.015
602.30 1.015
602.40 1.015
602.50 1.015
602.60 1.015
602.70 1.015
602.80 1.015
602.90 1.015
603.00 1.015
603.10 1.015
603.20 1.015
603.30 1.015
603.40 1.015
603.50 1.014
603.60 1.014
603.70 1.014
603.80 1.014
603.90 1.014
604.00 1.014
604.10 1.014
604.20 1.014
604.30 1.014
604.40 1.014
604.50 1.014
604.60 1.014
604.70 1.014
604.80 1.014
604.90 1.014
605.00 1.014
605.10 1.014
605.20 1.014
605.30 1.013
605.40 1.013
605.50 1.013
605.60 1.013
605.70 1.013
605.80 1.013
605.90 1.013
606.00 1.013
606.10 1.013
606.20 1.013
606.30 1.013
606.40 1.013
606.50 1.013
606.60 1.013
606.70 1.013
606.80 1.013
606.90 1.013
607.00 1.012
607.10 1.012
607.20 1.012
607.30 1.012
607.40 1.012
607.50 1.012
607.60 1.012
607.70 1.012
607.80 1.012
607.90 1.012
608.00 1.012
608.10 1.012
608.20 1.012
608.30 1.012
608.40 1.012
608.50 1.012
608.60 1.012
608.70 1.011
608.80 1.011
608.90 1.011
609.00 1.011
609.10 1.011
609.20 1.011
609.30 1.011
609.40 1.011
609.50 1.011
609.60 1.011
609.70 1.011
609.80 1.011
609.90 1.011
610.00 1.011
610.10 1.011
610.20 1.011
610.30 1.011
610.40 1.01
610.50 1.01
610.60 1.01
610.70 1.01
610.80 1.01
610.90 1.01
611.00 1.01
611.10 1.01
611.20 1.01
611.30 1.01
611.40 1.01
611.50 1.01
611.60 1.01
611.70 1.01
611.80 1.01
611.90 1.01
612.00 1.009
612.10 1.009
612.20 1.009
612.30 1.009
612.40 1.009
612.50 1.009
612.60 1.009
612.70 1.009
612.80 1.009
612.90 1.009
613.00 1.009
613.10 1.009
613.20 1.009
613.30 1.009
613.40 1.009
613.50 1.008
613.60 1.008
613.70 1.008
613.80 1.008
613.90 1.008
614.00 1.008
614.10 1.008
614.20 1.008
614.30 1.008
614.40 1.008
614.50 1.008
614.60 1.008
614.70 1.008
614.80 1.008
614.90 1.008
615.00 1.008
615.10 1.007
615.20 1.007
615.30 1.007
615.40 1.007
615.50 1.007
615.60 1.007
615.70 1.007
615.80 1.007
615.90 1.007
616.00 1.007
616.10 1.007
616.20 1.007
616.30 1.007
616.40 1.007
616.50 1.007
616.60 1.006
616.70 1.006
616.80 1.006
616.90 1.006
617.00 1.006
617.10 1.006
617.20 1.006
617.30 1.006
617.40 1.006
617.50 1.006
617.60 1.006
617.70 1.006
617.80 1.006
617.90 1.006
618.00 1.005
618.10 1.005
618.20 1.005
618.30 1.005
618.40 1.005
618.50 1.005
618.60 1.005
618.70 1.005
618.80 1.005
618.90 1.005
619.00 1.005
619.10 1.005
619.20 1.005
619.30 1.005
619.40 1.005
619.50 1.004
619.60 1.004
619.70 1.004
619.80 1.004
619.90 1.004
620.00 1.004
620.10 1.004
620.20 1.004
620.30 1.004
620.40 1.004
620.50 1.004
620.60 1.004
620.70 1.004
620.80 1.004
620.90 1.003
621.00 1.003
621.10 1.003
621.20 1.003
621.30 1.003
621.40 1.003
621.50 1.003
621.60 1.003
621.70 1.003
621.80 1.003
621.90 1.003
622.00 1.003
622.10 1.003
622.20 1.003
622.30 1.002
622.40 1.002
622.50 1.002
622.60 1.002
622.70 1.002
622.80 1.002
622.90 1.002
623.00 1.002
623.10 1.002
623.20 1.002
623.30 1.002
623.40 1.002
623.50 1.002
623.60 1.002
623.70 1.001
623.80 1.001
623.90 1.001
624.00 1.001
624.10 1.001
624.20 1.001
624.30 1.001
624.40 1.001
624.50 1.001
624.60 1.001
624.70 1.001
624.80 1.001
624.90 1.001
625.00 1
625.10 1
625.20 1
625.30 1
625.40 1
625.50 1
625.60 1
625.70 0.9999
625.80 0.9999
625.90 0.9998
626.00 0.9997
626.10 0.9996
626.20 0.9996
626.30 0.9995
626.40 0.9994
626.50 0.9993
626.60 0.9993
626.70 0.9992
626.80 0.9991
626.90 0.999
627.00 0.999
627.10 0.9989
627.20 0.9988
627.30 0.9987
627.40 0.9986
627.50 0.9986
627.60 0.9985
627.70 0.9984
627.80 0.9983
627.90 0.9983
628.00 0.9982
628.10 0.9981
628.20 0.998
628.30 0.998
628.40 0.9979
628.50 0.9978
628.60 0.9977
628.70 0.9976
628.80 0.9976
628.90 0.9975
629.00 0.9974
629.10 0.9973
629.20 0.9973
629.30 0.9972
629.40 0.9971
629.50 0.997
629.60 0.997
629.70 0.9969
629.80 0.9968
629.90 0.9967
630.00 0.9966
630.10 0.9966
630.20 0.9965
630.30 0.9964
630.40 0.9963
630.50 0.9963
630.60 0.9962
630.70 0.9961
630.80 0.996
630.90 0.9959
631.00 0.9959
631.10 0.9958
631.20 0.9957
631.30 0.9956
631.40 0.9955
631.50 0.9955
631.60 0.9954
631.70 0.9953
631.80 0.9952
631.90 0.9951
632.00 0.9951
632.10 0.995
632.20 0.9949
632.30 0.9948
632.40 0.9947
632.50 0.9947
632.60 0.9946
632.70 0.9945
632.80 0.9944
632.90 0.9943
633.00 0.9942
633.10 0.9942
633.20 0.9941
633.30 0.994
633.40 0.9939
633.50 0.9938
633.60 0.9938
633.70 0.9937
633.80 0.9936
633.90 0.9935
634.00 0.9934
634.10 0.9933
634.20 0.9933
634.30 0.9932
634.40 0.9931
634.50 0.993
634.60 0.9929
634.70 0.9929
634.80 0.9928
634.90 0.9927
635.00 0.9926
635.10 0.9925
635.20 0.9924
635.30 0.9924
635.40 0.9923
635.50 0.9922
635.60 0.9921
635.70 0.992
635.80 0.992
635.90 0.9919
636.00 0.9918
636.10 0.9917
636.20 0.9916
636.30 0.9915
636.40 0.9915
636.50 0.9914
636.60 0.9913
636.70 0.9912
636.80 0.9911
636.90 0.991
637.00 0.991
637.10 0.9909
637.20 0.9908
637.30 0.9907
637.40 0.9906
637.50 0.9905
637.60 0.9904
637.70 0.9904
637.80 0.9903
637.90 0.9902
638.00 0.9901
638.10 0.99
638.20 0.9899
638.30 0.9899
638.40 0.9898
638.50 0.9897
638.60 0.9896
638.70 0.9895
638.80 0.9894
638.90 0.9893
639.00 0.9893
639.10 0.9892
639.20 0.9891
639.30 0.989
639.40 0.9889
639.50 0.9888
639.60 0.9887
639.70 0.9886
639.80 0.9886
639.90 0.9885
640.00 0.9884
640.10 0.9883
640.20 0.9882
640.30 0.9881
640.40 0.988
640.50 0.988
640.60 0.9879
640.70 0.9878
640.80 0.9877
640.90 0.9876
641.00 0.9875
641.10 0.9874
641.20 0.9873
641.30 0.9873
641.40 0.9872
641.50 0.9871
641.60 0.987
641.70 0.9869
641.80 0.9868
641.90 0.9867
642.00 0.9867
642.10 0.9866
642.20 0.9865
642.30 0.9864
642.40 0.9863
642.50 0.9862
642.60 0.9861
642.70 0.986
642.80 0.986
642.90 0.9859
643.00 0.9858
643.10 0.9857
643.20 0.9856
643.30 0.9855
643.40 0.9854
643.50 0.9853
643.60 0.9852
643.70 0.9851
643.80 0.9851
643.90 0.985
644.00 0.9849
644.10 0.9848
644.20 0.9847
644.30 0.9846
644.40 0.9845
644.50 0.9844
644.60 0.9843
644.70 0.9842
644.80 0.9841
644.90 0.9841
645.00 0.984
645.10 0.9839
645.20 0.9838
645.30 0.9837
645.40 0.9836
645.50 0.9835
645.60 0.9834
645.70 0.9833
645.80 0.9832
645.90 0.9831
646.00 0.9831
646.10 0.983
646.20 0.9829
646.30 0.9828
646.40 0.9827
646.50 0.9826
646.60 0.9825
646.70 0.9824
646.80 0.9823
646.90 0.9822
647.00 0.9821
647.10 0.982
647.20 0.9819
647.30 0.9818
647.40 0.9818
647.50 0.9817
647.60 0.9816
647.70 0.9815
647.80 0.9814
647.90 0.9813
648.00 0.9812
648.10 0.9811
648.20 0.981
648.30 0.9809
648.40 0.9808
648.50 0.9807
648.60 0.9806
648.70 0.9805
648.80 0.9804
648.90 0.9803
649.00 0.9802
649.10 0.9801
649.20 0.98
649.30 0.9799
649.40 0.9798
649.50 0.9797
649.60 0.9796
649.70 0.9795
649.80 0.9794
649.90 0.9793
650.00 0.9792
650.10 0.9791
650.20 0.979
650.30 0.9789
650.40 0.9788
650.50 0.9787
650.60 0.9786
650.70 0.9785
650.80 0.9784
650.90 0.9783
651.00 0.9782
651.10 0.9781
651.20 0.978
651.30 0.9778
651.40 0.9777
651.50 0.9776
651.60 0.9775
651.70 0.9774
651.80 0.9772
651.90 0.9771
652.00 0.977
652.10 0.9769
652.20 0.9768
652.30 0.9766
652.40 0.9765
652.50 0.9763
652.60 0.9762
652.70 0.976
652.80 0.9759
652.90 0.9757
653.00 0.9756
653.10 0.9755
653.20 0.9753
653.30 0.9751
653.40 0.9749
653.50 0.9747
653.60 0.9744
653.70 0.9742
653.80 0.9739
653.90 0.9737
654.00 0.9734
654.10 0.9732
654.20 0.973
654.30 0.9727
654.40 0.9722
654.50 0.9717
654.60 0.9712
654.70 0.9707
654.80 0.9701
654.90 0.969
655.00 0.9679
655.10 0.9669
655.20 0.9658
655.30 0.9645
655.40 0.9622
655.50 0.9596
655.60 0.9557
655.70 0.951
655.80 0.9434
655.90 0.9338
656.00 0.9166
656.10 0.8974
656.20 0.8623
656.30 0.8301
656.40 0.8771
656.50 0.9054
656.60 0.9226
656.70 0.9378
656.80 0.9454
656.90 0.9522
657.00 0.9559
657.10 0.9593
657.20 0.9614
657.30 0.9632
657.40 0.9641
657.50 0.965
657.60 0.9659
657.70 0.9668
657.80 0.9676
657.90 0.9678
658.00 0.9681
658.10 0.9684
658.20 0.9687
658.30 0.969
658.40 0.969
658.50 0.9691
658.60 0.9691
658.70 0.9692
658.80 0.9692
658.90 0.9693
659.00 0.9693
659.10 0.9694
659.20 0.9694
659.30 0.9694
659.40 0.9694
659.50 0.9694
659.60 0.9693
659.70 0.9693
659.80 0.9692
659.90 0.9692
660.00 0.9691
660.10 0.9691
660.20 0.969
660.30 0.969
660.40 0.9689
660.50 0.9688
660.60 0.9688
660.70 0.9687
660.80 0.9686
660.90 0.9685
661.00 0.9685
661.10 0.9684
661.20 0.9683
661.30 0.9682
661.40 0.9682
661.50 0.9681
661.60 0.968
661.70 0.9679
661.80 0.9678
661.90 0.9677
662.00 0.9676
662.10 0.9676
662.20 0.9675
662.30 0.9674
662.40 0.9673
662.50 0.9672
662.60 0.9671
662.70 0.967
662.80 0.9669
662.90 0.9668
663.00 0.9668
663.10 0.9667
663.20 0.9666
663.30 0.9665
663.40 0.9664
663.50 0.9663
663.60 0.9662
663.70 0.9661
663.80 0.966
663.90 0.9659
664.00 0.9658
664.10 0.9657
664.20 0.9656
664.30 0.9655
664.40 0.9654
664.50 0.9653
664.60 0.9652
664.70 0.9651
664.80 0.965
664.90 0.9649
665.00 0.9648
665.10 0.9647
665.20 0.9646
665.30 0.9645
665.40 0.9644
665.50 0.9643
665.60 0.9642
665.70 0.9641
665.80 0.964
665.90 0.9639
666.00 0.9638
666.10 0.9637
666.20 0.9636
666.30 0.9635
666.40 0.9634
666.50 0.9633
666.60 0.9632
666.70 0.9631
666.80 0.963
666.90 0.9629
667.00 0.9629
667.10 0.9628
667.20 0.9627
667.30 0.9626
667.40 0.9625
667.50 0.9624
667.60 0.9623
667.70 0.9622
667.80 0.9621
667.90 0.962
668.00 0.9619
668.10 0.9618
668.20 0.9617
668.30 0.9616
668.40 0.9615
668.50 0.9613
668.60 0.9612
668.70 0.9611
668.80 0.961
668.90 0.9609
669.00 0.9608
669.10 0.9607
669.20 0.9606
669.30 0.9605
669.40 0.9604
669.50 0.9603
669.60 0.9602
669.70 0.9601
669.80 0.96
669.90 0.9599
670.00 0.9598
670.10 0.9597
670.20 0.9596
670.30 0.9595
670.40 0.9594
670.50 0.9593
670.60 0.9592
670.70 0.9591
670.80 0.959
670.90 0.9589
671.00 0.9588
671.10 0.9587
671.20 0.9586
671.30 0.9585
671.40 0.9584
671.50 0.9583
671.60 0.9582
671.70 0.9581
671.80 0.9579
671.90 0.9578
672.00 0.9577
672.10 0.9576
672.20 0.9575
672.30 0.9574
672.40 0.9573
672.50 0.9572
672.60 0.9571
672.70 0.957
672.80 0.9569
672.90 0.9568
673.00 0.9567
673.10 0.9566
673.20 0.9565
673.30 0.9564
673.40 0.9563
673.50 0.9562
673.60 0.9561
673.70 0.956
673.80 0.9559
673.90 0.9558
674.00 0.9557
674.10 0.9555
674.20 0.9554
674.30 0.9553
674.40 0.9552
674.50 0.9551
674.60 0.955
674.70 0.9549
674.80 0.9548
674.90 0.9547
675.00 0.9546
675.10 0.9545
675.20 0.9544
675.30 0.9543
675.40 0.9542
675.50 0.9541
675.60 0.954
675.70 0.9539
675.80 0.9537
675.90 0.9536
676.00 0.9535
676.10 0.9534
676.20 0.9533
676.30 0.9532
676.40 0.9531
676.50 0.953
676.60 0.9529
676.70 0.9528
676.80 0.9527
676.90 0.9526
677.00 0.9525
677.10 0.9524
677.20 0.9523
677.30 0.9522
677.40 0.9521
677.50 0.9519
677.60 0.9518
677.70 0.9517
677.80 0.9516
677.90 0.9515
678.00 0.9514
678.10 0.9513
678.20 0.9512
678.30 0.9511
678.40 0.951
678.50 0.9509
678.60 0.9508
678.70 0.9506
678.80 0.9505
678.90 0.9504
679.00 0.9503
679.10 0.9502
679.20 0.9501
679.30 0.95
679.40 0.9499
679.50 0.9498
679.60 0.9497
679.70 0.9496
679.80 0.9495
679.90 0.9493
680.00 0.9492
680.10 0.9491
680.20 0.949
680.30 0.9489
680.40 0.9488
680.50 0.9487
680.60 0.9486
680.70 0.9485
680.80 0.9484
680.90 0.9483
681.00 0.9482
681.10 0.9481
681.20 0.9479
681.30 0.9478
681.40 0.9477
681.50 0.9476
681.60 0.9475
681.70 0.9474
681.80 0.9473
681.90 0.9472
682.00 0.9471
682.10 0.947
682.20 0.9468
682.30 0.9467
682.40 0.9466
682.50 0.9465
682.60 0.9464
682.70 0.9463
682.80 0.9462
682.90 0.9461
683.00 0.946
683.10 0.9459
683.20 0.9458
683.30 0.9456
683.40 0.9455
683.50 0.9454
683.60 0.9453
683.70 0.9452
683.80 0.9451
683.90 0.945
684.00 0.9449
684.10 0.9448
684.20 0.9447
684.30 0.9446
684.40 0.9444
684.50 0.9443
684.60 0.9442
684.70 0.9441
684.80 0.944
684.90 0.9439
685.00 0.9438
685.10 0.9437
685.20 0.9436
685.30 0.9434
685.40 0.9433
685.50 0.9432
685.60 0.9431
685.70 0.943
685.80 0.9429
685.90 0.9428
686.00 0.9427
686.10 0.9426
686.20 0.9424
686.30 0.9423
686.40 0.9422
686.50 0.9421
686.60 0.942
686.70 0.9419
686.80 0.9418
686.90 0.9417
687.00 0.9416
687.10 0.9414
687.20 0.9413
687.30 0.9412
687.40 0.9411
687.50 0.941
687.60 0.9409
687.70 0.9408
687.80 0.9407
687.90 0.9406
688.00 0.9405
688.10 0.9403
688.20 0.9402
688.30 0.9401
688.40 0.94
688.50 0.9399
688.60 0.9398
688.70 0.9397
688.80 0.9396
688.90 0.9395
689.00 0.9393
689.10 0.9392
689.20 0.9391
689.30 0.939
689.40 0.9389
689.50 0.9388
689.60 0.9387
689.70 0.9385
689.80 0.9384
689.90 0.9383
690.00 0.9382
690.10 0.9381
690.20 0.938
690.30 0.9379
690.40 0.9377
690.50 0.9376
690.60 0.9375
690.70 0.9374
690.80 0.9373
690.90 0.9372
691.00 0.9371
691.10 0.937
691.20 0.9368
691.30 0.9367
691.40 0.9366
691.50 0.9365
691.60 0.9364
691.70 0.9363
691.80 0.9362
691.90 0.936
692.00 0.9359
692.10 0.9358
692.20 0.9357
692.30 0.9356
692.40 0.9355
692.50 0.9354
692.60 0.9353
692.70 0.9351
692.80 0.935
692.90 0.9349
693.00 0.9348
693.10 0.9347
693.20 0.9346
693.30 0.9345
693.40 0.9343
693.50 0.9342
693.60 0.9341
693.70 0.934
693.80 0.9339
693.90 0.9338
694.00 0.9337
694.10 0.9336
694.20 0.9334
694.30 0.9333
694.40 0.9332
694.50 0.9331
694.60 0.933
694.70 0.9329
694.80 0.9328
694.90 0.9327
695.00 0.9325
695.10 0.9324
695.20 0.9323
695.30 0.9322
695.40 0.9321
695.50 0.932
695.60 0.9319
695.70 0.9317
695.80 0.9316
695.90 0.9315
696.00 0.9314
696.10 0.9313
696.20 0.9312
696.30 0.931
696.40 0.9309
696.50 0.9308
696.60 0.9307
696.70 0.9306
696.80 0.9305
696.90 0.9303
697.00 0.9302
697.10 0.9301
697.20 0.93
697.30 0.9299
697.40 0.9298
697.50 0.9297
697.60 0.9295
697.70 0.9294
697.80 0.9293
697.90 0.9292
698.00 0.9291
698.10 0.929
698.20 0.9289
698.30 0.9287
698.40 0.9286
698.50 0.9285
698.60 0.9284
698.70 0.9283
698.80 0.9282
698.90 0.928
699.00 0.9279
699.10 0.9278
699.20 0.9277
699.30 0.9276
699.40 0.9275
699.50 0.9274
699.60 0.9272
699.70 0.9271
699.80 0.927
699.90 0.9269
700.00 0.9268
700.10 0.9267
700.20 0.9266
700.30 0.9264
700.40 0.9263
700.50 0.9262
700.60 0.9261
700.70 0.926
700.80 0.9258
700.90 0.9257
701.00 0.9256
701.10 0.9255
701.20 0.9254
701.30 0.9253
701.40 0.9251
701.50 0.925
701.60 0.9249
701.70 0.9248
701.80 0.9247
701.90 0.9246
702.00 0.9244
702.10 0.9243
702.20 0.9242
702.30 0.9241
702.40 0.924
702.50 0.9239
702.60 0.9237
702.70 0.9236
702.80 0.9235
702.90 0.9234
703.00 0.9233
703.10 0.9232
703.20 0.923
703.30 0.9229
703.40 0.9228
703.50 0.9227
703.60 0.9226
703.70 0.9225
703.80 0.9223
703.90 0.9222
704.00 0.9221
704.10 0.922
704.20 0.9219
704.30 0.9218
704.40 0.9217
704.50 0.9215
704.60 0.9214
704.70 0.9213
704.80 0.9212
704.90 0.9211
705.00 0.921
705.10 0.9208
705.20 0.9207
705.30 0.9206
705.40 0.9205
705.50 0.9204
705.60 0.9202
705.70 0.9201
705.80 0.92
705.90 0.9199
706.00 0.9198
706.10 0.9196
706.20 0.9195
706.30 0.9194
706.40 0.9193
706.50 0.9192
706.60 0.9191
706.70 0.9189
706.80 0.9188
706.90 0.9187
707.00 0.9186
707.10 0.9185
707.20 0.9183
707.30 0.9182
707.40 0.9181
707.50 0.918
707.60 0.9179
707.70 0.9178
707.80 0.9176
707.90 0.9175
708.00 0.9174
708.10 0.9173
708.20 0.9172
708.30 0.917
708.40 0.9169
708.50 0.9168
708.60 0.9167
708.70 0.9166
708.80 0.9165
708.90 0.9163
709.00 0.9162
709.10 0.9161
709.20 0.916
709.30 0.9159
709.40 0.9157
709.50 0.9156
709.60 0.9155
709.70 0.9154
709.80 0.9153
709.90 0.9152
710.00 0.915
710.10 0.9149
710.20 0.9148
710.30 0.9147
710.40 0.9146
710.50 0.9144
710.60 0.9143
710.70 0.9142
710.80 0.9141
710.90 0.914
711.00 0.9138
711.10 0.9137
711.20 0.9136
711.30 0.9135
711.40 0.9134
711.50 0.9132
711.60 0.9131
711.70 0.913
711.80 0.9129
711.90 0.9128
712.00 0.9126
712.10 0.9125
712.20 0.9124
712.30 0.9123
712.40 0.9122
712.50 0.912
712.60 0.9119
712.70 0.9118
712.80 0.9117
712.90 0.9116
713.00 0.9114
713.10 0.9113
713.20 0.9112
713.30 0.9111
713.40 0.911
713.50 0.9108
713.60 0.9107
713.70 0.9106
713.80 0.9105
713.90 0.9104
714.00 0.9102
714.10 0.9101
714.20 0.91
714.30 0.9099
714.40 0.9098
714.50 0.9096
714.60 0.9095
714.70 0.9094
714.80 0.9093
714.90 0.9092
715.00 0.909
715.10 0.9089
715.20 0.9088
715.30 0.9087
715.40 0.9086
715.50 0.9084
715.60 0.9083
715.70 0.9082
715.80 0.9081
715.90 0.908
716.00 0.9078
716.10 0.9077
716.20 0.9076
716.30 0.9075
716.40 0.9073
716.50 0.9072
716.60 0.9071
716.70 0.907
716.80 0.9069
716.90 0.9067
717.00 0.9066
717.10 0.9065
717.20 0.9064
717.30 0.9063
717.40 0.9061
717.50 0.906
717.60 0.9059
717.70 0.9058
717.80 0.9056
717.90 0.9055
718.00 0.9054
718.10 0.9053
718.20 0.9052
718.30 0.905
718.40 0.9049
718.50 0.9048
718.60 0.9047
718.70 0.9046
718.80 0.9044
718.90 0.9043
719.00 0.9042
719.10 0.9041
719.20 0.904
719.30 0.9038
719.40 0.9037
719.50 0.9036
719.60 0.9035
719.70 0.9034
719.80 0.9032
719.90 0.9031
720.00 0.903
720.10 0.9029
720.20 0.9027
720.30 0.9026
720.40 0.9025
720.50 0.9024
720.60 0.9023
720.70 0.9021
720.80 0.902
720.90 0.9019
721.00 0.9018
721.10 0.9016
721.20 0.9015
721.30 0.9014
721.40 0.9013
721.50 0.9012
721.60 0.901
721.70 0.9009
721.80 0.9008
721.90 0.9007
722.00 0.9005
722.10 0.9004
722.20 0.9003
722.30 0.9002
722.40 0.9001
722.50 0.8999
722.60 0.8998
722.70 0.8997
722.80 0.8996
722.90 0.8994
723.00 0.8993
723.10 0.8992
723.20 0.8991
723.30 0.899
723.40 0.8988
723.50 0.8987
723.60 0.8986
723.70 0.8985
723.80 0.8983
723.90 0.8982
724.00 0.8981
724.10 0.898
724.20 0.8979
724.30 0.8977
724.40 0.8976
724.50 0.8975
724.60 0.8974
724.70 0.8973
724.80 0.8971
724.90 0.897
725.00 0.8969
725.10 0.8968
725.20 0.8966
725.30 0.8965
725.40 0.8964
725.50 0.8963
725.60 0.8961
725.70 0.896
725.80 0.8959
725.90 0.8958
726.00 0.8956
726.10 0.8955
726.20 0.8954
726.30 0.8953
726.40 0.8952
726.50 0.895
726.60 0.8949
726.70 0.8948
726.80 0.8947
726.90 0.8945
727.00 0.8944
727.10 0.8943
727.20 0.8942
727.30 0.894
727.40 0.8939
727.50 0.8938
727.60 0.8937
727.70 0.8935
727.80 0.8934
727.90 0.8933
728.00 0.8932
728.10 0.8931
728.20 0.8929
728.30 0.8928
728.40 0.8927
728.50 0.8926
728.60 0.8924
728.70 0.8923
728.80 0.8922
728.90 0.8921
729.00 0.8919
729.10 0.8918
729.20 0.8917
729.30 0.8916
729.40 0.8915
729.50 0.8913
729.60 0.8912
729.70 0.8911
729.80 0.891
729.90 0.8908
730.00 0.8907
730.10 0.8906
730.20 0.8905
730.30 0.8903
730.40 0.8902
730.50 0.8901
730.60 0.89
730.70 0.8898
730.80 0.8897
730.90 0.8896
731.00 0.8895
731.10 0.8893
731.20 0.8892
731.30 0.8891
731.40 0.8889
731.50 0.8888
731.60 0.8887
731.70 0.8886
731.80 0.8884
731.90 0.8883
732.00 0.8882
732.10 0.8881
732.20 0.8879
732.30 0.8878
732.40 0.8877
732.50 0.8876
732.60 0.8874
732.70 0.8873
732.80 0.8872
732.90 0.8871
733.00 0.8869
733.10 0.8868
733.20 0.8867
733.30 0.8866
733.40 0.8864
733.50 0.8863
733.60 0.8862
733.70 0.8861
733.80 0.8859
733.90 0.8858
734.00 0.8857
734.10 0.8856
734.20 0.8854
734.30 0.8853
734.40 0.8852
734.50 0.8851
734.60 0.8849
734.70 0.8848
734.80 0.8847
734.90 0.8846
735.00 0.8844
735.10 0.8843
735.20 0.8842
735.30 0.8841
735.40 0.8839
735.50 0.8838
735.60 0.8837
735.70 0.8836
735.80 0.8834
735.90 0.8833
736.00 0.8832
736.10 0.8831
736.20 0.8829
736.30 0.8828
736.40 0.8827
736.50 0.8826
736.60 0.8824
736.70 0.8823
736.80 0.8822
736.90 0.8821
737.00 0.8819
737.10 0.8818
737.20 0.8817
737.30 0.8816
737.40 0.8814
737.50 0.8813
737.60 0.8812
737.70 0.8811
737.80 0.881
737.90 0.8808
738.00 0.8807
738.10 0.8806
738.20 0.8805
738.30 0.8803
738.40 0.8802
738.50 0.8801
738.60 0.88
738.70 0.8798
738.80 0.8797
738.90 0.8796
739.00 0.8795
739.10 0.8793
739.20 0.8792
739.30 0.8791
739.40 0.879
739.50 0.8788
739.60 0.8787
739.70 0.8786
739.80 0.8785
739.90 0.8784
740.00 0.8782
740.10 0.8781
740.20 0.878
740.30 0.8778
740.40 0.8777
740.50 0.8776
740.60 0.8775
740.70 0.8773
740.80 0.8772
740.90 0.8771
741.00 0.877
741.10 0.8768
741.20 0.8767
741.30 0.8766
741.40 0.8764
741.50 0.8763
741.60 0.8762
741.70 0.8761
741.80 0.8759
741.90 0.8758
742.00 0.8757
742.10 0.8756
742.20 0.8754
742.30 0.8753
742.40 0.8752
742.50 0.875
742.60 0.8749
742.70 0.8748
742.80 0.8747
742.90 0.8745
743.00 0.8744
743.10 0.8743
743.20 0.8742
743.30 0.874
743.40 0.8739
743.50 0.8738
743.60 0.8736
743.70 0.8735
743.80 0.8734
743.90 0.8733
744.00 0.8731
744.10 0.873
744.20 0.8729
744.30 0.8728
744.40 0.8726
744.50 0.8725
744.60 0.8724
744.70 0.8723
744.80 0.8721
744.90 0.872
745.00 0.8719
745.10 0.8717
745.20 0.8716
745.30 0.8715
745.40 0.8714
745.50 0.8712
745.60 0.8711
745.70 0.871
745.80 0.8709
745.90 0.8707
746.00 0.8706
746.10 0.8705
746.20 0.8704
746.30 0.8702
746.40 0.8701
746.50 0.87
746.60 0.8699
746.70 0.8697
746.80 0.8696
746.90 0.8695
747.00 0.8694
747.10 0.8692
747.20 0.8691
747.30 0.869
747.40 0.8688
747.50 0.8687
747.60 0.8686
747.70 0.8685
747.80 0.8683
747.90 0.8682
748.00 0.8681
748.10 0.868
748.20 0.8678
748.30 0.8677
748.40 0.8676
748.50 0.8675
748.60 0.8673
748.70 0.8672
748.80 0.8671
748.90 0.867
749.00 0.8668
749.10 0.8667
749.20 0.8666
749.30 0.8665
749.40 0.8663
749.50 0.8662
749.60 0.8661
749.70 0.866
749.80 0.8658
749.90 0.8657
750.00 0.8656
750.10 0.8655
750.20 0.8653
750.30 0.8652
750.40 0.8651
750.50 0.865
750.60 0.8648
750.70 0.8647
750.80 0.8646
750.90 0.8644
751.00 0.8643
751.10 0.8642
751.20 0.864
751.30 0.8639
751.40 0.8638
751.50 0.8637
751.60 0.8635
751.70 0.8634
751.80 0.8633
751.90 0.8631
752.00 0.863
752.10 0.8629
752.20 0.8628
752.30 0.8626
752.40 0.8625
752.50 0.8624
752.60 0.8622
752.70 0.8621
752.80 0.862
752.90 0.8619
753.00 0.8617
753.10 0.8616
753.20 0.8615
753.30 0.8613
753.40 0.8612
753.50 0.8611
753.60 0.861
753.70 0.8608
753.80 0.8607
753.90 0.8606
754.00 0.8605
754.10 0.8603
754.20 0.8602
754.30 0.8601
754.40 0.8599
754.50 0.8598
754.60 0.8597
754.70 0.8596
754.80 0.8594
754.90 0.8593
755.00 0.8592
755.10 0.859
755.20 0.8589
755.30 0.8588
755.40 0.8587
755.50 0.8585
755.60 0.8584
755.70 0.8583
755.80 0.8582
755.90 0.858
756.00 0.8579
756.10 0.8578
756.20 0.8576
756.30 0.8575
756.40 0.8574
756.50 0.8573
756.60 0.8571
756.70 0.857
756.80 0.8569
756.90 0.8568
757.00 0.8566
757.10 0.8565
757.20 0.8564
757.30 0.8562
757.40 0.8561
757.50 0.856
757.60 0.8559
757.70 0.8557
757.80 0.8556
757.90 0.8555
758.00 0.8554
758.10 0.8552
758.20 0.8551
758.30 0.855
758.40 0.8549
758.50 0.8547
758.60 0.8546
758.70 0.8545
758.80 0.8544
758.90 0.8542
759.00 0.8541
759.10 0.854
759.20 0.8538
759.30 0.8537
759.40 0.8536
759.50 0.8535
759.60 0.8533
759.70 0.8532
759.80 0.8531
759.90 0.853
760.00 0.8528
760.10 0.8527
760.20 0.8526
760.30 0.8524
760.40 0.8523
760.50 0.8522
760.60 0.8521
760.70 0.8519
760.80 0.8518
760.90 0.8517
761.00 0.8515
761.10 0.8514
761.20 0.8513
761.30 0.8511
761.40 0.851
761.50 0.8509
761.60 0.8508
761.70 0.8506
761.80 0.8505
761.90 0.8504
762.00 0.8502
762.10 0.8501
762.20 0.85
762.30 0.8498
762.40 0.8497
762.50 0.8496
762.60 0.8495
762.70 0.8493
762.80 0.8492
762.90 0.8491
763.00 0.8489
763.10 0.8488
763.20 0.8487
763.30 0.8486
763.40 0.8484
763.50 0.8483
763.60 0.8482
763.70 0.848
763.80 0.8479
763.90 0.8478
764.00 0.8477
764.10 0.8475
764.20 0.8474
764.30 0.8473
764.40 0.8471
764.50 0.847
764.60 0.8469
764.70 0.8467
764.80 0.8466
764.90 0.8465
765.00 0.8464
765.10 0.8462
765.20 0.8461
765.30 0.846
765.40 0.8458
765.50 0.8457
765.60 0.8456
765.70 0.8455
765.80 0.8453
765.90 0.8452
766.00 0.8451
766.10 0.845
766.20 0.8448
766.30 0.8447
766.40 0.8446
766.50 0.8444
766.60 0.8443
766.70 0.8442
766.80 0.8441
766.90 0.8439
767.00 0.8438
767.10 0.8437
767.20 0.8435
767.30 0.8434
767.40 0.8433
767.50 0.8432
767.60 0.843
767.70 0.8429
767.80 0.8428
767.90 0.8427
768.00 0.8425
768.10 0.8424
768.20 0.8423
768.30 0.8421
768.40 0.842
768.50 0.8419
768.60 0.8418
768.70 0.8416
768.80 0.8415
768.90 0.8414
769.00 0.8413
769.10 0.8411
769.20 0.841
769.30 0.8409
769.40 0.8407
769.50 0.8406
769.60 0.8405
769.70 0.8404
769.80 0.8402
769.90 0.8401
770.00 0.84
770.10 0.8399
770.20 0.8397
770.30 0.8396
770.40 0.8395
770.50 0.8393
770.60 0.8392
770.70 0.8391
770.80 0.8389
770.90 0.8388
771.00 0.8387
771.10 0.8385
771.20 0.8384
771.30 0.8383
771.40 0.8381
771.50 0.838
771.60 0.8379
771.70 0.8378
771.80 0.8376
771.90 0.8375
772.00 0.8374
772.10 0.8372
772.20 0.8371
772.30 0.837
772.40 0.8368
772.50 0.8367
772.60 0.8366
772.70 0.8365
772.80 0.8363
772.90 0.8362
773.00 0.8361
773.10 0.8359
773.20 0.8358
773.30 0.8357
773.40 0.8355
773.50 0.8354
773.60 0.8353
773.70 0.8352
773.80 0.835
773.90 0.8349
774.00 0.8348
774.10 0.8346
774.20 0.8345
774.30 0.8344
774.40 0.8342
774.50 0.8341
774.60 0.834
774.70 0.8339
774.80 0.8337
774.90 0.8336
775.00 0.8335
775.10 0.8333
775.20 0.8332
775.30 0.8331
775.40 0.833
775.50 0.8328
775.60 0.8327
775.70 0.8326
775.80 0.8324
775.90 0.8323
776.00 0.8322
776.10 0.8321
776.20 0.8319
776.30 0.8318
776.40 0.8317
776.50 0.8315
776.60 0.8314
776.70 0.8313
776.80 0.8312
776.90 0.831
777.00 0.8309
777.10 0.8308
777.20 0.8306
777.30 0.8305
777.40 0.8304
777.50 0.8303
777.60 0.8301
777.70 0.83
777.80 0.8299
777.90 0.8297
778.00 0.8296
778.10 0.8295
778.20 0.8294
778.30 0.8292
778.40 0.8291
778.50 0.829
778.60 0.8288
778.70 0.8287
778.80 0.8286
778.90 0.8285
779.00 0.8283
779.10 0.8282
779.20 0.8281
779.30 0.828
779.40 0.8278
779.50 0.8277
779.60 0.8276
779.70 0.8274
779.80 0.8273
779.90 0.8272
780.00 0.8271
780.10 0.8269
780.20 0.8268
780.30 0.8267
780.40 0.8265
780.50 0.8264
780.60 0.8263
780.70 0.8261
780.80 0.826
780.90 0.8259
781.00 0.8257
781.10 0.8256
781.20 0.8255
781.30 0.8254
781.40 0.8252
781.50 0.8251
781.60 0.825
781.70 0.8248
781.80 0.8247
781.90 0.8246
782.00 0.8244
782.10 0.8243
782.20 0.8242
782.30 0.824
782.40 0.8239
782.50 0.8238
782.60 0.8237
782.70 0.8235
782.80 0.8234
782.90 0.8233
783.00 0.8231
783.10 0.823
783.20 0.8229
783.30 0.8227
783.40 0.8226
783.50 0.8225
783.60 0.8223
783.70 0.8222
783.80 0.8221
783.90 0.822
784.00 0.8218
784.10 0.8217
784.20 0.8216
784.30 0.8214
784.40 0.8213
784.50 0.8212
784.60 0.8211
784.70 0.8209
784.80 0.8208
784.90 0.8207
785.00 0.8205
785.10 0.8204
785.20 0.8203
785.30 0.8201
785.40 0.82
785.50 0.8199
785.60 0.8198
785.70 0.8196
785.80 0.8195
785.90 0.8194
786.00 0.8192
786.10 0.8191
786.20 0.819
786.30 0.8189
786.40 0.8187
786.50 0.8186
786.60 0.8185
786.70 0.8183
786.80 0.8182
786.90 0.8181
787.00 0.8179
787.10 0.8178
787.20 0.8177
787.30 0.8176
787.40 0.8174
787.50 0.8173
787.60 0.8172
787.70 0.817
787.80 0.8169
787.90 0.8168
788.00 0.8167
788.10 0.8165
788.20 0.8164
788.30 0.8163
788.40 0.8162
788.50 0.816
788.60 0.8159
788.70 0.8158
788.80 0.8156
788.90 0.8155
789.00 0.8154
789.10 0.8153
789.20 0.8151
789.30 0.815
789.40 0.8149
789.50 0.8147
789.60 0.8146
789.70 0.8145
789.80 0.8144
789.90 0.8142
790.00 0.8141
790.10 0.814
790.20 0.8138
790.30 0.8137
790.40 0.8136
790.50 0.8134
790.60 0.8133
790.70 0.8132
790.80 0.8131
790.90 0.8129
791.00 0.8128
791.10 0.8127
791.20 0.8125
791.30 0.8124
791.40 0.8123
791.50 0.8121
791.60 0.812
791.70 0.8119
791.80 0.8117
791.90 0.8116
792.00 0.8115
792.10 0.8113
792.20 0.8112
792.30 0.8111
792.40 0.811
792.50 0.8108
792.60 0.8107
792.70 0.8106
792.80 0.8104
792.90 0.8103
793.00 0.8102
793.10 0.81
793.20 0.8099
793.30 0.8098
793.40 0.8096
793.50 0.8095
793.60 0.8094
793.70 0.8093
793.80 0.8091
793.90 0.809
794.00 0.8089
794.10 0.8087
794.20 0.8086
794.30 0.8085
794.40 0.8083
794.50 0.8082
794.60 0.8081
794.70 0.808
794.80 0.8078
794.90 0.8077
795.00 0.8076
795.10 0.8074
795.20 0.8073
795.30 0.8072
795.40 0.8071
795.50 0.8069
795.60 0.8068
795.70 0.8067
795.80 0.8065
795.90 0.8064
796.00 0.8063
796.10 0.8061
796.20 0.806
796.30 0.8059
796.40 0.8058
796.50 0.8056
796.60 0.8055
796.70 0.8054
796.80 0.8052
796.90 0.8051
797.00 0.805
797.10 0.8049
797.20 0.8047
797.30 0.8046
797.40 0.8045
797.50 0.8043
797.60 0.8042
797.70 0.8041
797.80 0.804
797.90 0.8038
798.00 0.8037
798.10 0.8036
798.20 0.8034
798.30 0.8033
798.40 0.8032
798.50 0.8031
798.60 0.8029
798.70 0.8028
798.80 0.8027
798.90 0.8025
799.00 0.8024
799.10 0.8023
799.20 0.8022
799.30 0.802
799.40 0.8019
799.50 0.8018
799.60 0.8016
799.70 0.8015
799.80 0.8014
799.90 0.8013
800.00 0.8011
800.10 0.801
800.20 0.8009
800.30 0.8007
800.40 0.8006
800.50 0.8005
800.60 0.8003
800.70 0.8002
800.80 0.8001
800.90 0.7999
801.00 0.7998
801.10 0.7997
801.20 0.7996
801.30 0.7994
801.40 0.7993
801.50 0.7992
801.60 0.799
801.70 0.7989
801.80 0.7988
801.90 0.7986
802.00 0.7985
802.10 0.7984
802.20 0.7982
802.30 0.7981
802.40 0.798
802.50 0.7979
802.60 0.7977
802.70 0.7976
802.80 0.7975
802.90 0.7973
803.00 0.7972
803.10 0.7971
803.20 0.7969
803.30 0.7968
803.40 0.7967
803.50 0.7966
803.60 0.7964
803.70 0.7963
803.80 0.7962
803.90 0.796
804.00 0.7959
804.10 0.7958
804.20 0.7956
804.30 0.7955
804.40 0.7954
804.50 0.7953
804.60 0.7951
804.70 0.795
804.80 0.7949
804.90 0.7947
805.00 0.7946
805.10 0.7945
805.20 0.7943
805.30 0.7942
805.40 0.7941
805.50 0.794
805.60 0.7938
805.70 0.7937
805.80 0.7936
805.90 0.7934
806.00 0.7933
806.10 0.7932
806.20 0.7931
806.30 0.7929
806.40 0.7928
806.50 0.7927
806.60 0.7925
806.70 0.7924
806.80 0.7923
806.90 0.7921
807.00 0.792
807.10 0.7919
807.20 0.7918
807.30 0.7916
807.40 0.7915
807.50 0.7914
807.60 0.7912
807.70 0.7911
807.80 0.791
807.90 0.7909
808.00 0.7907
808.10 0.7906
808.20 0.7905
808.30 0.7903
808.40 0.7902
808.50 0.7901
808.60 0.79
808.70 0.7898
808.80 0.7897
808.90 0.7896
809.00 0.7895
809.10 0.7893
809.20 0.7892
809.30 0.7891
809.40 0.7889
809.50 0.7888
809.60 0.7887
809.70 0.7886
809.80 0.7884
809.90 0.7883
810.00 0.7882
810.10 0.788
810.20 0.7879
810.30 0.7878
810.40 0.7876
810.50 0.7875
810.60 0.7874
810.70 0.7873
810.80 0.7871
810.90 0.787
811.00 0.7869
811.10 0.7867
811.20 0.7866
811.30 0.7865
811.40 0.7863
811.50 0.7862
811.60 0.7861
811.70 0.7859
811.80 0.7858
811.90 0.7857
812.00 0.7856
812.10 0.7854
812.20 0.7853
812.30 0.7852
812.40 0.785
812.50 0.7849
812.60 0.7848
812.70 0.7846
812.80 0.7845
812.90 0.7844
813.00 0.7843
813.10 0.7841
813.20 0.784
813.30 0.7839
813.40 0.7837
813.50 0.7836
813.60 0.7835
813.70 0.7833
813.80 0.7832
813.90 0.7831
814.00 0.783
814.10 0.7828
814.20 0.7827
814.30 0.7826
814.40 0.7824
814.50 0.7823
814.60 0.7822
814.70 0.782
814.80 0.7819
814.90 0.7818
815.00 0.7817
815.10 0.7815
815.20 0.7814
815.30 0.7813
815.40 0.7811
815.50 0.781
815.60 0.7809
815.70 0.7808
815.80 0.7806
815.90 0.7805
816.00 0.7804
816.10 0.7802
816.20 0.7801
816.30 0.78
816.40 0.7799
816.50 0.7797
816.60 0.7796
816.70 0.7795
816.80 0.7793
816.90 0.7792
817.00 0.7791
817.10 0.779
817.20 0.7788
817.30 0.7787
817.40 0.7786
817.50 0.7784
817.60 0.7783
817.70 0.7782
817.80 0.7781
817.90 0.7779
818.00 0.7778
818.10 0.7777
818.20 0.7775
818.30 0.7774
818.40 0.7773
818.50 0.7772
818.60 0.777
818.70 0.7769
818.80 0.7768
818.90 0.7767
819.00 0.7765
819.10 0.7764
819.20 0.7763
819.30 0.7761
819.40 0.776
819.50 0.7759
819.60 0.7758
819.70 0.7756
819.80 0.7755
819.90 0.7754
820.00 0.7753
820.10 0.7751
820.20 0.775
820.30 0.7749
820.40 0.7747
820.50 0.7746
820.60 0.7745
820.70 0.7744
820.80 0.7742
820.90 0.7741
821.00 0.774
821.10 0.7738
821.20 0.7737
821.30 0.7736
821.40 0.7735
821.50 0.7733
821.60 0.7732
821.70 0.7731
821.80 0.7729
821.90 0.7728
822.00 0.7727
822.10 0.7726
822.20 0.7724
822.30 0.7723
822.40 0.7722
822.50 0.772
822.60 0.7719
822.70 0.7718
822.80 0.7716
822.90 0.7715
823.00 0.7714
823.10 0.7713
823.20 0.7711
823.30 0.771
823.40 0.7709
823.50 0.7707
823.60 0.7706
823.70 0.7705
823.80 0.7703
823.90 0.7702
824.00 0.7701
824.10 0.77
824.20 0.7698
824.30 0.7697
824.40 0.7696
824.50 0.7694
824.60 0.7693
824.70 0.7692
824.80 0.7691
824.90 0.7689
825.00 0.7688
825.10 0.7687
825.20 0.7685
825.30 0.7684
825.40 0.7683
825.50 0.7682
825.60 0.768
825.70 0.7679
825.80 0.7678
825.90 0.7676
826.00 0.7675
826.10 0.7674
826.20 0.7673
826.30 0.7671
826.40 0.767
826.50 0.7669
826.60 0.7667
826.70 0.7666
826.80 0.7665
826.90 0.7664
827.00 0.7662
827.10 0.7661
827.20 0.766
827.30 0.7658
827.40 0.7657
827.50 0.7656
827.60 0.7655
827.70 0.7653
827.80 0.7652
827.90 0.7651
828.00 0.7649
828.10 0.7648
828.20 0.7647
828.30 0.7646
828.40 0.7644
828.50 0.7643
828.60 0.7642
828.70 0.764
828.80 0.7639
828.90 0.7638
829.00 0.7637
829.10 0.7635
829.20 0.7634
829.30 0.7633
829.40 0.7631
829.50 0.763
829.60 0.7629
829.70 0.7628
829.80 0.7626
829.90 0.7625
830.00 0.7624
830.10 0.7622
830.20 0.7621
830.30 0.762
830.40 0.7619
830.50 0.7617
830.60 0.7616
830.70 0.7615
830.80 0.7613
830.90 0.7612
831.00 0.7611
831.10 0.761
831.20 0.7608
831.30 0.7607
831.40 0.7606
831.50 0.7604
831.60 0.7603
831.70 0.7602
831.80 0.7601
831.90 0.7599
832.00 0.7598
832.10 0.7597
832.20 0.7596
832.30 0.7594
832.40 0.7593
832.50 0.7592
832.60 0.759
832.70 0.7589
832.80 0.7588
832.90 0.7586
833.00 0.7585
833.10 0.7584
833.20 0.7583
833.30 0.7581
833.40 0.758
833.50 0.7579
833.60 0.7577
833.70 0.7576
833.80 0.7575
833.90 0.7574
834.00 0.7572
834.10 0.7571
834.20 0.757
834.30 0.7569
834.40 0.7567
834.50 0.7566
834.60 0.7565
834.70 0.7563
834.80 0.7562
834.90 0.7561
835.00 0.756
835.10 0.7558
835.20 0.7557
835.30 0.7556
835.40 0.7554
835.50 0.7553
835.60 0.7552
835.70 0.7551
835.80 0.7549
835.90 0.7548
836.00 0.7547
836.10 0.7545
836.20 0.7544
836.30 0.7543
836.40 0.7542
836.50 0.754
836.60 0.7539
836.70 0.7538
836.80 0.7537
836.90 0.7535
837.00 0.7534
837.10 0.7533
837.20 0.7531
837.30 0.753
837.40 0.7529
837.50 0.7528
837.60 0.7526
837.70 0.7525
837.80 0.7524
837.90 0.7522
838.00 0.7521
838.10 0.752
838.20 0.7519
838.30 0.7517
838.40 0.7516
838.50 0.7515
838.60 0.7513
838.70 0.7512
838.80 0.7511
838.90 0.751
839.00 0.7508
839.10 0.7507
839.20 0.7506
839.30 0.7505
839.40 0.7503
839.50 0.7502
839.60 0.7501
839.70 0.7499
839.80 0.7498
839.90 0.7497
840.00 0.7496
840.10 0.7494
840.20 0.7493
840.30 0.7492
840.40 0.7491
840.50 0.7489
840.60 0.7488
840.70 0.7487
840.80 0.7485
840.90 0.7484
841.00 0.7483
841.10 0.7482
841.20 0.748
841.30 0.7479
841.40 0.7478
841.50 0.7477
841.60 0.7475
841.70 0.7474
841.80 0.7473
841.90 0.7471
842.00 0.747
842.10 0.7469
842.20 0.7468
842.30 0.7466
842.40 0.7465
842.50 0.7464
842.60 0.7463
842.70 0.7461
842.80 0.746
842.90 0.7459
843.00 0.7457
843.10 0.7456
843.20 0.7455
843.30 0.7454
843.40 0.7452
843.50 0.7451
843.60 0.745
843.70 0.7448
843.80 0.7447
843.90 0.7446
844.00 0.7445
844.10 0.7443
844.20 0.7442
844.30 0.7441
844.40 0.744
844.50 0.7438
844.60 0.7437
844.70 0.7436
844.80 0.7434
844.90 0.7433
845.00 0.7432
845.10 0.7431
845.20 0.7429
845.30 0.7428
845.40 0.7427
845.50 0.7426
845.60 0.7424
845.70 0.7423
845.80 0.7422
845.90 0.742
846.00 0.7419
846.10 0.7418
846.20 0.7417
846.30 0.7415
846.40 0.7414
846.50 0.7413
846.60 0.7412
846.70 0.741
846.80 0.7409
846.90 0.7408
847.00 0.7407
847.10 0.7405
847.20 0.7404
847.30 0.7403
847.40 0.7401
847.50 0.74
847.60 0.7399
847.70 0.7398
847.80 0.7396
847.90 0.7395
848.00 0.7394
848.10 0.7393
848.20 0.7391
848.30 0.739
848.40 0.7389
848.50 0.7387
848.60 0.7386
848.70 0.7385
848.80 0.7384
848.90 0.7382
849.00 0.7381
849.10 0.738
849.20 0.7379
849.30 0.7377
849.40 0.7376
849.50 0.7375
849.60 0.7374
849.70 0.7372
849.80 0.7371
849.90 0.737
850.00 0.7368
850.10 0.7367
850.20 0.7366
850.30 0.7365
850.40 0.7363
850.50 0.7362
850.60 0.7361
850.70 0.736
850.80 0.7358
850.90 0.7357
851.00 0.7356
851.10 0.7355
851.20 0.7353
851.30 0.7352
851.40 0.7351
851.50 0.735
851.60 0.7348
851.70 0.7347
851.80 0.7346
851.90 0.7344
852.00 0.7343
852.10 0.7342
852.20 0.7341
852.30 0.7339
852.40 0.7338
852.50 0.7337
852.60 0.7336
852.70 0.7334
852.80 0.7333
852.90 0.7332
853.00 0.733
853.10 0.7329
853.20 0.7328
853.30 0.7327
853.40 0.7325
853.50 0.7324
853.60 0.7323
853.70 0.7322
853.80 0.732
853.90 0.7319
854.00 0.7318
854.10 0.7317
854.20 0.7315
854.30 0.7314
854.40 0.7313
854.50 0.7311
854.60 0.731
854.70 0.7309
854.80 0.7308
854.90 0.7306
855.00 0.7305
855.10 0.7304
855.20 0.7303
855.30 0.7301
855.40 0.73
855.50 0.7299
855.60 0.7298
855.70 0.7296
855.80 0.7295
855.90 0.7294
856.00 0.7293
856.10 0.7291
856.20 0.729
856.30 0.7289
856.40 0.7288
856.50 0.7286
856.60 0.7285
856.70 0.7284
856.80 0.7283
856.90 0.7281
857.00 0.728
857.10 0.7279
857.20 0.7277
857.30 0.7276
857.40 0.7275
857.50 0.7274
857.60 0.7272
857.70 0.7271
857.80 0.727
857.90 0.7269
858.00 0.7267
858.10 0.7266
858.20 0.7265
858.30 0.7264
858.40 0.7262
858.50 0.7261
858.60 0.726
858.70 0.7259
858.80 0.7257
858.90 0.7256
859.00 0.7255
859.10 0.7253
859.20 0.7252
859.30 0.7251
859.40 0.725
859.50 0.7248
859.60 0.7247
859.70 0.7246
859.80 0.7245
859.90 0.7243
860.00 0.7242
860.10 0.7241
860.20 0.724
860.30 0.7238
860.40 0.7237
860.50 0.7236
860.60 0.7235
860.70 0.7233
860.80 0.7232
860.90 0.7231
861.00 0.723
861.10 0.7228
861.20 0.7227
861.30 0.7226
861.40 0.7225
861.50 0.7223
861.60 0.7222
861.70 0.7221
861.80 0.722
861.90 0.7218
862.00 0.7217
862.10 0.7216
862.20 0.7215
862.30 0.7213
862.40 0.7212
862.50 0.7211
862.60 0.721
862.70 0.7208
862.80 0.7207
862.90 0.7206
863.00 0.7205
863.10 0.7203
863.20 0.7202
863.30 0.7201
863.40 0.7199
863.50 0.7198
863.60 0.7197
863.70 0.7196
863.80 0.7194
863.90 0.7193
864.00 0.7192
864.10 0.7191
864.20 0.7189
864.30 0.7188
864.40 0.7187
864.50 0.7186
864.60 0.7184
864.70 0.7183
864.80 0.7182
864.90 0.7181
865.00 0.7179
865.10 0.7178
865.20 0.7177
865.30 0.7176
865.40 0.7174
865.50 0.7173
865.60 0.7172
865.70 0.7171
865.80 0.7169
865.90 0.7168
866.00 0.7167
866.10 0.7166
866.20 0.7164
866.30 0.7163
866.40 0.7162
866.50 0.7161
866.60 0.7159
866.70 0.7158
866.80 0.7157
866.90 0.7156
867.00 0.7155
867.10 0.7153
867.20 0.7152
867.30 0.7151
867.40 0.7149
867.50 0.7148
867.60 0.7147
867.70 0.7146
867.80 0.7144
867.90 0.7143
868.00 0.7142
868.10 0.7141
868.20 0.7139
868.30 0.7138
868.40 0.7137
868.50 0.7136
868.60 0.7134
868.70 0.7133
868.80 0.7132
868.90 0.7131
869.00 0.7129
869.10 0.7128
869.20 0.7127
869.30 0.7126
869.40 0.7124
869.50 0.7123
869.60 0.7122
869.70 0.7121
869.80 0.7119
869.90 0.7118
870.00 0.7117
870.10 0.7116
870.20 0.7114
870.30 0.7113
870.40 0.7112
870.50 0.7111
870.60 0.7109
870.70 0.7108
870.80 0.7107
870.90 0.7106
871.00 0.7105
871.10 0.7103
871.20 0.7102
871.30 0.7101
871.40 0.71
871.50 0.7098
871.60 0.7097
871.70 0.7096
871.80 0.7095
871.90 0.7093
872.00 0.7092
872.10 0.7091
872.20 0.709
872.30 0.7088
872.40 0.7087
872.50 0.7086
872.60 0.7085
872.70 0.7083
872.80 0.7082
872.90 0.7081
873.00 0.708
873.10 0.7078
873.20 0.7077
873.30 0.7076
873.40 0.7075
873.50 0.7073
873.60 0.7072
873.70 0.7071
873.80 0.707
873.90 0.7068
874.00 0.7067
874.10 0.7066
874.20 0.7065
874.30 0.7063
874.40 0.7062
874.50 0.7061
874.60 0.706
874.70 0.7059
874.80 0.7057
874.90 0.7056
875.00 0.7055
875.10 0.7054
875.20 0.7052
875.30 0.7051
875.40 0.705
875.50 0.7049
875.60 0.7047
875.70 0.7046
875.80 0.7045
875.90 0.7044
876.00 0.7042
876.10 0.7041
876.20 0.704
876.30 0.7039
876.40 0.7038
876.50 0.7036
876.60 0.7035
876.70 0.7034
876.80 0.7033
876.90 0.7031
877.00 0.703
877.10 0.7029
877.20 0.7028
877.30 0.7026
877.40 0.7025
877.50 0.7024
877.60 0.7023
877.70 0.7021
877.80 0.702
877.90 0.7019
878.00 0.7018
878.10 0.7016
878.20 0.7015
878.30 0.7014
878.40 0.7013
878.50 0.7012
878.60 0.701
878.70 0.7009
878.80 0.7008
878.90 0.7007
879.00 0.7005
879.10 0.7004
879.20 0.7003
879.30 0.7002
879.40 0.7
879.50 0.6999
879.60 0.6998
879.70 0.6997
879.80 0.6995
879.90 0.6994
880.00 0.6993
880.10 0.6992
880.20 0.6991
880.30 0.6989
880.40 0.6988
880.50 0.6987
880.60 0.6986
880.70 0.6984
880.80 0.6983
880.90 0.6982
881.00 0.6981
881.10 0.6979
881.20 0.6978
881.30 0.6977
881.40 0.6976
881.50 0.6975
881.60 0.6973
881.70 0.6972
881.80 0.6971
881.90 0.697
882.00 0.6968
882.10 0.6967
882.20 0.6966
882.30 0.6965
882.40 0.6964
882.50 0.6962
882.60 0.6961
882.70 0.696
882.80 0.6959
882.90 0.6957
883.00 0.6956
883.10 0.6955
883.20 0.6954
883.30 0.6952
883.40 0.6951
883.50 0.695
883.60 0.6949
883.70 0.6947
883.80 0.6946
883.90 0.6945
884.00 0.6944
884.10 0.6943
884.20 0.6941
884.30 0.694
884.40 0.6939
884.50 0.6938
884.60 0.6936
884.70 0.6935
884.80 0.6934
884.90 0.6933
885.00 0.6931
885.10 0.693
885.20 0.6929
885.30 0.6928
885.40 0.6927
885.50 0.6925
885.60 0.6924
885.70 0.6923
885.80 0.6922
885.90 0.692
886.00 0.6919
886.10 0.6918
886.20 0.6917
886.30 0.6916
886.40 0.6914
886.50 0.6913
886.60 0.6912
886.70 0.6911
886.80 0.6909
886.90 0.6908
887.00 0.6907
887.10 0.6906
887.20 0.6905
887.30 0.6903
887.40 0.6902
887.50 0.6901
887.60 0.69
887.70 0.6898
887.80 0.6897
887.90 0.6896
888.00 0.6895
888.10 0.6893
888.20 0.6892
888.30 0.6891
888.40 0.689
888.50 0.6889
888.60 0.6887
888.70 0.6886
888.80 0.6885
888.90 0.6884
889.00 0.6882
889.10 0.6881
889.20 0.688
889.30 0.6879
889.40 0.6878
889.50 0.6876
889.60 0.6875
889.70 0.6874
889.80 0.6873
889.90 0.6871
890.00 0.687
890.10 0.6869
890.20 0.6868
890.30 0.6867
890.40 0.6865
890.50 0.6864
890.60 0.6863
890.70 0.6862
890.80 0.6861
890.90 0.6859
891.00 0.6858
891.10 0.6857
891.20 0.6856
891.30 0.6854
891.40 0.6853
891.50 0.6852
891.60 0.6851
891.70 0.685
891.80 0.6848
891.90 0.6847
892.00 0.6846
892.10 0.6845
892.20 0.6844
892.30 0.6842
892.40 0.6841
892.50 0.684
892.60 0.6839
892.70 0.6837
892.80 0.6836
892.90 0.6835
893.00 0.6834
893.10 0.6833
893.20 0.6831
893.30 0.683
893.40 0.6829
893.50 0.6828
893.60 0.6826
893.70 0.6825
893.80 0.6824
893.90 0.6823
894.00 0.6822
894.10 0.682
894.20 0.6819
894.30 0.6818
894.40 0.6817
894.50 0.6816
894.60 0.6814
894.70 0.6813
894.80 0.6812
894.90 0.6811
895.00 0.6809
895.10 0.6808
895.20 0.6807
895.30 0.6806
895.40 0.6805
895.50 0.6803
895.60 0.6802
895.70 0.6801
895.80 0.68
895.90 0.6799
896.00 0.6797
896.10 0.6796
896.20 0.6795
896.30 0.6794
896.40 0.6793
896.50 0.6791
896.60 0.679
896.70 0.6789
896.80 0.6788
896.90 0.6787
897.00 0.6785
897.10 0.6784
897.20 0.6783
897.30 0.6782
897.40 0.678
897.50 0.6779
897.60 0.6778
897.70 0.6777
897.80 0.6776
897.90 0.6774
898.00 0.6773
898.10 0.6772
898.20 0.6771
898.30 0.677
898.40 0.6768
898.50 0.6767
898.60 0.6766
898.70 0.6765
898.80 0.6763
898.90 0.6762
899.00 0.6761
899.10 0.676
899.20 0.6759
899.30 0.6757
899.40 0.6756
899.50 0.6755
899.60 0.6754
899.70 0.6753
899.80 0.6751
899.90 0.675
900.00 0.6749
900.10 0.6748
900.20 0.6747
900.30 0.6745
900.40 0.6744
900.50 0.6743
900.60 0.6742
900.70 0.6741
900.80 0.6739
900.90 0.6738
901.00 0.6737
901.10 0.6736
901.20 0.6735
901.30 0.6733
901.40 0.6732
901.50 0.6731
901.60 0.673
901.70 0.6729
901.80 0.6727
901.90 0.6726
902.00 0.6725
902.10 0.6724
902.20 0.6723
902.30 0.6721
902.40 0.672
902.50 0.6719
902.60 0.6718
902.70 0.6716
902.80 0.6715
902.90 0.6714
903.00 0.6713
903.10 0.6712
903.20 0.671
903.30 0.6709
903.40 0.6708
903.50 0.6707
903.60 0.6706
903.70 0.6704
903.80 0.6703
903.90 0.6702
904.00 0.6701
904.10 0.67
904.20 0.6698
904.30 0.6697
904.40 0.6696
904.50 0.6695
904.60 0.6694
904.70 0.6692
904.80 0.6691
904.90 0.669
905.00 0.6689
905.10 0.6688
905.20 0.6686
905.30 0.6685
905.40 0.6684
905.50 0.6683
905.60 0.6682
905.70 0.668
905.80 0.6679
905.90 0.6678
906.00 0.6677
906.10 0.6676
906.20 0.6674
906.30 0.6673
906.40 0.6672
906.50 0.6671
906.60 0.667
906.70 0.6669
906.80 0.6667
906.90 0.6666
907.00 0.6665
907.10 0.6664
907.20 0.6663
907.30 0.6661
907.40 0.666
907.50 0.6659
907.60 0.6658
907.70 0.6657
907.80 0.6655
907.90 0.6654
908.00 0.6653
908.10 0.6652
908.20 0.6651
908.30 0.6649
908.40 0.6648
908.50 0.6647
908.60 0.6646
908.70 0.6645
908.80 0.6643
908.90 0.6642
909.00 0.6641
909.10 0.664
909.20 0.6639
909.30 0.6637
909.40 0.6636
909.50 0.6635
909.60 0.6634
909.70 0.6633
909.80 0.6631
909.90 0.663
910.00 0.6629
910.10 0.6628
910.20 0.6627
910.30 0.6626
910.40 0.6624
910.50 0.6623
910.60 0.6622
910.70 0.6621
910.80 0.662
910.90 0.6618
911.00 0.6617
911.10 0.6616
911.20 0.6615
911.30 0.6614
911.40 0.6612
911.50 0.6611
911.60 0.661
911.70 0.6609
911.80 0.6608
911.90 0.6607
912.00 0.6605
912.10 0.6604
912.20 0.6603
912.30 0.6602
912.40 0.6601
912.50 0.6599
912.60 0.6598
912.70 0.6597
912.80 0.6596
912.90 0.6595
913.00 0.6593
913.10 0.6592
913.20 0.6591
913.30 0.659
913.40 0.6589
913.50 0.6588
913.60 0.6586
913.70 0.6585
913.80 0.6584
913.90 0.6583
914.00 0.6582
914.10 0.658
914.20 0.6579
914.30 0.6578
914.40 0.6577
914.50 0.6576
914.60 0.6574
914.70 0.6573
914.80 0.6572
914.90 0.6571
915.00 0.657
915.10 0.6569
915.20 0.6567
915.30 0.6566
915.40 0.6565
915.50 0.6564
915.60 0.6563
915.70 0.6561
915.80 0.656
915.90 0.6559
916.00 0.6558
916.10 0.6557
916.20 0.6556
916.30 0.6554
916.40 0.6553
916.50 0.6552
916.60 0.6551
916.70 0.655
916.80 0.6548
916.90 0.6547
917.00 0.6546
917.10 0.6545
917.20 0.6544
917.30 0.6543
917.40 0.6541
917.50 0.654
917.60 0.6539
917.70 0.6538
917.80 0.6537
917.90 0.6535
918.00 0.6534
918.10 0.6533
918.20 0.6532
918.30 0.6531
918.40 0.653
918.50 0.6528
918.60 0.6527
918.70 0.6526
918.80 0.6525
918.90 0.6524
919.00 0.6523
919.10 0.6521
919.20 0.652
919.30 0.6519
919.40 0.6518
919.50 0.6517
919.60 0.6515
919.70 0.6514
919.80 0.6513
919.90 0.6512
920.00 0.6511
920.10 0.651
920.20 0.6508
920.30 0.6507
920.40 0.6506
920.50 0.6505
920.60 0.6504
920.70 0.6503
920.80 0.6501
920.90 0.65
921.00 0.6499
921.10 0.6498
921.20 0.6497
921.30 0.6496
921.40 0.6494
921.50 0.6493
921.60 0.6492
921.70 0.6491
921.80 0.649
921.90 0.6488
922.00 0.6487
922.10 0.6486
922.20 0.6485
922.30 0.6484
922.40 0.6483
922.50 0.6481
922.60 0.648
922.70 0.6479
922.80 0.6478
922.90 0.6477
923.00 0.6476
923.10 0.6474
923.20 0.6473
923.30 0.6472
923.40 0.6471
923.50 0.647
923.60 0.6469
923.70 0.6467
923.80 0.6466
923.90 0.6465
924.00 0.6464
924.10 0.6463
924.20 0.6461
924.30 0.646
924.40 0.6459
924.50 0.6458
924.60 0.6457
924.70 0.6456
924.80 0.6454
924.90 0.6453
925.00 0.6452
925.10 0.6451
925.20 0.645
925.30 0.6449
925.40 0.6447
925.50 0.6446
925.60 0.6445
925.70 0.6444
925.80 0.6443
925.90 0.6442
926.00 0.644
926.10 0.6439
926.20 0.6438
926.30 0.6437
926.40 0.6436
926.50 0.6435
926.60 0.6433
926.70 0.6432
926.80 0.6431
926.90 0.643
927.00 0.6429
927.10 0.6428
927.20 0.6426
927.30 0.6425
927.40 0.6424
927.50 0.6423
927.60 0.6422
927.70 0.6421
927.80 0.6419
927.90 0.6418
928.00 0.6417
928.10 0.6416
928.20 0.6415
928.30 0.6414
928.40 0.6413
928.50 0.6411
928.60 0.641
928.70 0.6409
928.80 0.6408
928.90 0.6407
929.00 0.6406
929.10 0.6404
929.20 0.6403
929.30 0.6402
929.40 0.6401
929.50 0.64
929.60 0.6399
929.70 0.6397
929.80 0.6396
929.90 0.6395
930.00 0.6394
930.10 0.6393
930.20 0.6392
930.30 0.639
930.40 0.6389
930.50 0.6388
930.60 0.6387
930.70 0.6386
930.80 0.6385
930.90 0.6384
931.00 0.6382
931.10 0.6381
931.20 0.638
931.30 0.6379
931.40 0.6378
931.50 0.6377
931.60 0.6375
931.70 0.6374
931.80 0.6373
931.90 0.6372
932.00 0.6371
932.10 0.637
932.20 0.6369
932.30 0.6367
932.40 0.6366
932.50 0.6365
932.60 0.6364
932.70 0.6363
932.80 0.6362
932.90 0.636
933.00 0.6359
933.10 0.6358
933.20 0.6357
933.30 0.6356
933.40 0.6355
933.50 0.6354
933.60 0.6352
933.70 0.6351
933.80 0.635
933.90 0.6349
934.00 0.6348
934.10 0.6347
934.20 0.6345
934.30 0.6344
934.40 0.6343
934.50 0.6342
934.60 0.6341
934.70 0.634
934.80 0.6339
934.90 0.6337
935.00 0.6336
935.10 0.6335
935.20 0.6334
935.30 0.6333
935.40 0.6332
935.50 0.633
935.60 0.6329
935.70 0.6328
935.80 0.6327
935.90 0.6326
936.00 0.6325
936.10 0.6324
936.20 0.6322
936.30 0.6321
936.40 0.632
936.50 0.6319
936.60 0.6318
936.70 0.6317
936.80 0.6315
936.90 0.6314
937.00 0.6313
937.10 0.6312
937.20 0.6311
937.30 0.631
937.40 0.6309
937.50 0.6307
937.60 0.6306
937.70 0.6305
937.80 0.6304
937.90 0.6303
938.00 0.6302
938.10 0.6301
938.20 0.6299
938.30 0.6298
938.40 0.6297
938.50 0.6296
938.60 0.6295
938.70 0.6294
938.80 0.6293
938.90 0.6291
939.00 0.629
939.10 0.6289
939.20 0.6288
939.30 0.6287
939.40 0.6286
939.50 0.6285
939.60 0.6283
939.70 0.6282
939.80 0.6281
939.90 0.628
940.00 0.6279
940.10 0.6278
940.20 0.6277
940.30 0.6275
940.40 0.6274
940.50 0.6273
940.60 0.6272
940.70 0.6271
940.80 0.627
940.90 0.6269
941.00 0.6267
941.10 0.6266
941.20 0.6265
941.30 0.6264
941.40 0.6263
941.50 0.6262
941.60 0.6261
941.70 0.6259
941.80 0.6258
941.90 0.6257
942.00 0.6256
942.10 0.6255
942.20 0.6254
942.30 0.6253
942.40 0.6251
942.50 0.625
942.60 0.6249
942.70 0.6248
942.80 0.6247
942.90 0.6246
943.00 0.6245
943.10 0.6244
943.20 0.6242
943.30 0.6241
943.40 0.624
943.50 0.6239
943.60 0.6238
943.70 0.6237
943.80 0.6236
943.90 0.6234
944.00 0.6233
944.10 0.6232
944.20 0.6231
944.30 0.623
944.40 0.6229
944.50 0.6228
944.60 0.6226
944.70 0.6225
944.80 0.6224
944.90 0.6223
945.00 0.6222
945.10 0.6221
945.20 0.622
945.30 0.6219
945.40 0.6217
945.50 0.6216
945.60 0.6215
945.70 0.6214
945.80 0.6213
945.90 0.6212
946.00 0.6211
946.10 0.6209
946.20 0.6208
946.30 0.6207
946.40 0.6206
946.50 0.6205
946.60 0.6204
946.70 0.6203
946.80 0.6201
946.90 0.62
947.00 0.6199
947.10 0.6198
947.20 0.6197
947.30 0.6196
947.40 0.6195
947.50 0.6194
947.60 0.6192
947.70 0.6191
947.80 0.619
947.90 0.6189
948.00 0.6188
948.10 0.6187
948.20 0.6186
948.30 0.6185
948.40 0.6183
948.50 0.6182
948.60 0.6181
948.70 0.618
948.80 0.6179
948.90 0.6178
949.00 0.6177
949.10 0.6176
949.20 0.6174
949.30 0.6173
949.40 0.6172
949.50 0.6171
949.60 0.617
949.70 0.6169
949.80 0.6168
949.90 0.6167
950.00 0.6165
950.10 0.6164
950.20 0.6163
950.30 0.6162
950.40 0.6161
950.50 0.616
950.60 0.6159
950.70 0.6157
950.80 0.6156
950.90 0.6155
951.00 0.6154
951.10 0.6153
951.20 0.6152
951.30 0.6151
951.40 0.615
951.50 0.6149
951.60 0.6147
951.70 0.6146
951.80 0.6145
951.90 0.6144
952.00 0.6143
952.10 0.6142
952.20 0.6141
952.30 0.614
952.40 0.6138
952.50 0.6137
952.60 0.6136
952.70 0.6135
952.80 0.6134
952.90 0.6133
953.00 0.6132
953.10 0.6131
953.20 0.6129
953.30 0.6128
953.40 0.6127
953.50 0.6126
953.60 0.6125
953.70 0.6124
953.80 0.6123
953.90 0.6122
954.00 0.612
954.10 0.6119
954.20 0.6118
954.30 0.6116
954.40 0.6115
954.50 0.6115
954.60 0.6114
954.70 0.6113
954.80 0.6111
954.90 0.611
955.00 0.6109
955.10 0.6108
955.20 0.6107
955.30 0.6106
955.40 0.6105
955.50 0.6104
955.60 0.6103
955.70 0.6101
955.80 0.61
955.90 0.6099
956.00 0.6098
956.10 0.6097
956.20 0.6096
956.30 0.6095
956.40 0.6094
956.50 0.6093
956.60 0.6091
956.70 0.609
956.80 0.6089
956.90 0.6088
957.00 0.6087
957.10 0.6086
957.20 0.6085
957.30 0.6084
957.40 0.6082
957.50 0.6081
957.60 0.608
957.70 0.6079
957.80 0.6078
957.90 0.6077
958.00 0.6076
958.10 0.6075
958.20 0.6074
958.30 0.6072
958.40 0.6071
958.50 0.607
958.60 0.6069
958.70 0.6068
958.80 0.6067
958.90 0.6066
959.00 0.6065
959.10 0.6064
959.20 0.6062
959.30 0.6061
959.40 0.606
959.50 0.6059
959.60 0.6058
959.70 0.6057
959.80 0.6056
959.90 0.6055
960.00 0.6054
960.10 0.6052
960.20 0.6051
960.30 0.605
960.40 0.6049
960.50 0.6048
960.60 0.6047
960.70 0.6046
960.80 0.6045
960.90 0.6044
961.00 0.6043
961.10 0.6041
961.20 0.604
961.30 0.6039
961.40 0.6038
961.50 0.6037
961.60 0.6036
961.70 0.6035
961.80 0.6034
961.90 0.6033
962.00 0.6031
962.10 0.603
962.20 0.6029
962.30 0.6028
962.40 0.6027
962.50 0.6026
962.60 0.6025
962.70 0.6024
962.80 0.6023
962.90 0.6022
963.00 0.602
963.10 0.6019
963.20 0.6018
963.30 0.6017
963.40 0.6016
963.50 0.6015
963.60 0.6014
963.70 0.6013
963.80 0.6012
963.90 0.601
964.00 0.6009
964.10 0.6008
964.20 0.6007
964.30 0.6006
964.40 0.6005
964.50 0.6004
964.60 0.6003
964.70 0.6002
964.80 0.6001
964.90 0.5999
965.00 0.5998
965.10 0.5997
965.20 0.5996
965.30 0.5995
965.40 0.5994
965.50 0.5993
965.60 0.5992
965.70 0.5991
965.80 0.599
965.90 0.5988
966.00 0.5987
966.10 0.5986
966.20 0.5985
966.30 0.5984
966.40 0.5983
966.50 0.5982
966.60 0.5981
966.70 0.598
966.80 0.5979
966.90 0.5977
967.00 0.5976
967.10 0.5975
967.20 0.5974
967.30 0.5973
967.40 0.5972
967.50 0.5971
967.60 0.597
967.70 0.5969
967.80 0.5968
967.90 0.5966
968.00 0.5965
968.10 0.5964
968.20 0.5963
968.30 0.5962
968.40 0.5961
968.50 0.596
968.60 0.5959
968.70 0.5958
968.80 0.5957
968.90 0.5956
969.00 0.5954
969.10 0.5953
969.20 0.5952
969.30 0.5951
969.40 0.595
969.50 0.5949
969.60 0.5948
969.70 0.5947
969.80 0.5946
969.90 0.5945
970.00 0.5944
970.10 0.5942
970.20 0.5941
970.30 0.594
970.40 0.5939
970.50 0.5938
970.60 0.5937
970.70 0.5936
970.80 0.5935
970.90 0.5934
971.00 0.5933
971.10 0.5932
971.20 0.593
971.30 0.5929
971.40 0.5928
971.50 0.5927
971.60 0.5926
971.70 0.5925
971.80 0.5924
971.90 0.5923
972.00 0.5922
972.10 0.5921
972.20 0.592
972.30 0.5918
972.40 0.5917
972.50 0.5916
972.60 0.5915
972.70 0.5914
972.80 0.5913
972.90 0.5912
973.00 0.5911
973.10 0.591
973.20 0.5909
973.30 0.5908
973.40 0.5906
973.50 0.5905
973.60 0.5904
973.70 0.5903
973.80 0.5902
973.90 0.5901
974.00 0.59
974.10 0.5899
974.20 0.5898
974.30 0.5897
974.40 0.5896
974.50 0.5895
974.60 0.5893
974.70 0.5892
974.80 0.5891
974.90 0.589
975.00 0.5889
975.10 0.5888
975.20 0.5887
975.30 0.5886
975.40 0.5885
975.50 0.5884
975.60 0.5883
975.70 0.5882
975.80 0.588
975.90 0.5879
976.00 0.5878
976.10 0.5877
976.20 0.5876
976.30 0.5875
976.40 0.5874
976.50 0.5873
976.60 0.5872
976.70 0.5871
976.80 0.587
976.90 0.5869
977.00 0.5867
977.10 0.5866
977.20 0.5865
977.30 0.5864
977.40 0.5863
977.50 0.5862
977.60 0.5861
977.70 0.586
977.80 0.5859
977.90 0.5858
978.00 0.5857
978.10 0.5856
978.20 0.5855
978.30 0.5853
978.40 0.5852
978.50 0.5851
978.60 0.585
978.70 0.5849
978.80 0.5848
978.90 0.5847
979.00 0.5846
979.10 0.5845
979.20 0.5844
979.30 0.5843
979.40 0.5842
979.50 0.5841
979.60 0.5839
979.70 0.5838
979.80 0.5837
979.90 0.5836
980.00 0.5835
980.10 0.5834
980.20 0.5833
980.30 0.5832
980.40 0.5831
980.50 0.583
980.60 0.5829
980.70 0.5828
980.80 0.5827
980.90 0.5826
981.00 0.5824
981.10 0.5823
981.20 0.5822
981.30 0.5821
981.40 0.582
981.50 0.5819
981.60 0.5818
981.70 0.5817
981.80 0.5816
981.90 0.5815
982.00 0.5814
982.10 0.5813
982.20 0.5812
982.30 0.5811
982.40 0.5809
982.50 0.5808
982.60 0.5807
982.70 0.5806
982.80 0.5805
982.90 0.5804
983.00 0.5803
983.10 0.5802
983.20 0.5801
983.30 0.58
983.40 0.5799
983.50 0.5798
983.60 0.5797
983.70 0.5796
983.80 0.5795
983.90 0.5793
984.00 0.5792
984.10 0.5791
984.20 0.579
984.30 0.5789
984.40 0.5788
984.50 0.5787
984.60 0.5786
984.70 0.5785
984.80 0.5784
984.90 0.5783
985.00 0.5782
985.10 0.5781
985.20 0.578
985.30 0.5779
985.40 0.5777
985.50 0.5776
985.60 0.5775
985.70 0.5774
985.80 0.5773
985.90 0.5772
986.00 0.5771
986.10 0.577
986.20 0.5769
986.30 0.5768
986.40 0.5767
986.50 0.5766
986.60 0.5765
986.70 0.5764
986.80 0.5763
986.90 0.5762
987.00 0.576
987.10 0.5759
987.20 0.5758
987.30 0.5757
987.40 0.5756
987.50 0.5755
987.60 0.5754
987.70 0.5753
987.80 0.5752
987.90 0.5751
988.00 0.575
988.10 0.5749
988.20 0.5748
988.30 0.5747
988.40 0.5746
988.50 0.5745
988.60 0.5744
988.70 0.5742
988.80 0.5741
988.90 0.574
989.00 0.5739
989.10 0.5738
989.20 0.5737
989.30 0.5736
989.40 0.5735
989.50 0.5734
989.60 0.5733
989.70 0.5732
989.80 0.5731
989.90 0.573
990.00 0.5729
990.10 0.5728
990.20 0.5727
990.30 0.5726
990.40 0.5725
990.50 0.5723
990.60 0.5722
990.70 0.5721
990.80 0.572
990.90 0.5719
991.00 0.5718
991.10 0.5717
991.20 0.5716
991.30 0.5715
991.40 0.5714
991.50 0.5713
991.60 0.5712
991.70 0.5711
991.80 0.571
991.90 0.5709
992.00 0.5708
992.10 0.5707
992.20 0.5706
992.30 0.5704
992.40 0.5703
992.50 0.5702
992.60 0.5701
992.70 0.57
992.80 0.5699
992.90 0.5698
993.00 0.5697
993.10 0.5696
993.20 0.5695
993.30 0.5694
993.40 0.5693
993.50 0.5692
993.60 0.5691
993.70 0.569
993.80 0.5689
993.90 0.5688
994.00 0.5687
994.10 0.5686
994.20 0.5685
994.30 0.5684
994.40 0.5682
994.50 0.5681
994.60 0.568
994.70 0.5679
994.80 0.5678
994.90 0.5677
995.00 0.5676
995.10 0.5675
995.20 0.5674
995.30 0.5673
995.40 0.5672
995.50 0.5671
995.60 0.567
995.70 0.5669
995.80 0.5668
995.90 0.5667
996.00 0.5666
996.10 0.5665
996.20 0.5664
996.30 0.5663
996.40 0.5662
996.50 0.566
996.60 0.5659
996.70 0.5658
996.80 0.5657
996.90 0.5656
997.00 0.5655
997.10 0.5654
997.20 0.5653
997.30 0.5652
997.40 0.5651
997.50 0.565
997.60 0.5649
997.70 0.5648
997.80 0.5647
997.90 0.5646
998.00 0.5645
998.10 0.5644
998.20 0.5643
998.30 0.5642
998.40 0.5641
998.50 0.564
998.60 0.5639
998.70 0.5637
998.80 0.5636
998.90 0.5635
999.00 0.5634
999.10 0.5633
999.20 0.5632
999.30 0.5631
999.40 0.563
999.50 0.5629
999.60 0.5628
999.70 0.5627
999.80 0.5626
999.90 0.5625
1000.00 0.5624
1000.10 0.5623
1000.20 0.5622
1000.30 0.5621
1000.40 0.562
1000.50 0.5619
1000.60 0.5618
1000.70 0.5617
1000.80 0.5616
1000.90 0.5615
1001.00 0.5614
1001.10 0.5613
1001.20 0.5612
1001.30 0.561
1001.40 0.5609
1001.50 0.5608
1001.60 0.5607
1001.70 0.5606
1001.80 0.5605
1001.90 0.5604
1002.00 0.5603
1002.10 0.5602
1002.20 0.5601
1002.30 0.56
1002.40 0.5599
1002.50 0.5598
1002.60 0.5597
1002.70 0.5596
1002.80 0.5595
1002.90 0.5594
1003.00 0.5593
1003.10 0.5592
1003.20 0.5591
1003.30 0.559
1003.40 0.5589
1003.50 0.5588
1003.60 0.5587
1003.70 0.5586
1003.80 0.5585
1003.90 0.5584
1004.00 0.5582
1004.10 0.5581
1004.20 0.558
1004.30 0.5579
1004.40 0.5578
1004.50 0.5576
1004.60 0.5574
1004.70 0.5573
1004.80 0.5573
1004.90 0.5573
1005.00 0.5572
1005.10 0.5571
1005.20 0.557
1005.30 0.5569
1005.40 0.5568
1005.50 0.5567
1005.60 0.5566
1005.70 0.5565
1005.80 0.5564
1005.90 0.5563
1006.00 0.5562
1006.10 0.5561
1006.20 0.556
1006.30 0.5559
1006.40 0.5558
1006.50 0.5557
1006.60 0.5556
1006.70 0.5555
1006.80 0.5554
1006.90 0.5553
1007.00 0.5552
1007.10 0.5551
1007.20 0.555
1007.30 0.5549
1007.40 0.5548
1007.50 0.5547
1007.60 0.5546
1007.70 0.5545
1007.80 0.5544
1007.90 0.5543
1008.00 0.5542
1008.10 0.5541
1008.20 0.5539
1008.30 0.5538
1008.40 0.5537
1008.50 0.5536
1008.60 0.5535
1008.70 0.5534
1008.80 0.5533
1008.90 0.5532
1009.00 0.5531
1009.10 0.553
1009.20 0.5529
1009.30 0.5528
1009.40 0.5527
1009.50 0.5526
1009.60 0.5525
1009.70 0.5524
1009.80 0.5523
1009.90 0.5522
1010.00 0.5521
1010.10 0.552
1010.20 0.5519
1010.30 0.5518
1010.40 0.5517
1010.50 0.5516
1010.60 0.5515
1010.70 0.5514
1010.80 0.5513
1010.90 0.5512
1011.00 0.5511
1011.10 0.551
1011.20 0.5509
1011.30 0.5508
1011.40 0.5507
1011.50 0.5506
1011.60 0.5505
1011.70 0.5504
1011.80 0.5503
1011.90 0.5502
1012.00 0.5501
1012.10 0.55
1012.20 0.5499
1012.30 0.5498
1012.40 0.5497
1012.50 0.5496
1012.60 0.5495
1012.70 0.5494
1012.80 0.5493
1012.90 0.5492
1013.00 0.5491
1013.10 0.549
1013.20 0.5489
1013.30 0.5487
1013.40 0.5486
1013.50 0.5485
1013.60 0.5484
1013.70 0.5483
1013.80 0.5482
1013.90 0.5481
1014.00 0.548
1014.10 0.5479
1014.20 0.5478
1014.30 0.5477
1014.40 0.5476
1014.50 0.5475
1014.60 0.5474
1014.70 0.5473
1014.80 0.5472
1014.90 0.5471
1015.00 0.547
1015.10 0.5469
1015.20 0.5468
1015.30 0.5467
1015.40 0.5466
1015.50 0.5465
1015.60 0.5464
1015.70 0.5463
1015.80 0.5462
1015.90 0.5461
1016.00 0.546
1016.10 0.5459
1016.20 0.5458
1016.30 0.5457
1016.40 0.5456
1016.50 0.5455
1016.60 0.5454
1016.70 0.5453
1016.80 0.5452
1016.90 0.5451
1017.00 0.545
1017.10 0.5449
1017.20 0.5448
1017.30 0.5447
1017.40 0.5446
1017.50 0.5445
1017.60 0.5444
1017.70 0.5443
1017.80 0.5442
1017.90 0.5441
1018.00 0.544
1018.10 0.5439
1018.20 0.5438
1018.30 0.5437
1018.40 0.5436
1018.50 0.5435
1018.60 0.5434
1018.70 0.5433
1018.80 0.5432
1018.90 0.5431
1019.00 0.543
1019.10 0.5429
1019.20 0.5428
1019.30 0.5427
1019.40 0.5426
1019.50 0.5425
1019.60 0.5424
1019.70 0.5423
1019.80 0.5422
1019.90 0.5421
1020.00 0.542
1020.10 0.5419
1020.20 0.5418
1020.30 0.5417
1020.40 0.5416
1020.50 0.5415
1020.60 0.5414
1020.70 0.5413
1020.80 0.5412
1020.90 0.5411
1021.00 0.541
1021.10 0.5409
1021.20 0.5408
1021.30 0.5407
1021.40 0.5406
1021.50 0.5405
1021.60 0.5404
1021.70 0.5403
1021.80 0.5402
1021.90 0.5401
1022.00 0.54
1022.10 0.5399
1022.20 0.5398
1022.30 0.5397
1022.40 0.5396
1022.50 0.5395
1022.60 0.5394
1022.70 0.5393
1022.80 0.5392
1022.90 0.5391
1023.00 0.539
1023.10 0.5389
1023.20 0.5388
1023.30 0.5387
1023.40 0.5386
1023.50 0.5385
1023.60 0.5384
1023.70 0.5383
1023.80 0.5382
1023.90 0.5381
1024.00 0.538
1024.10 0.5379
1024.20 0.5378
1024.30 0.5377
1024.40 0.5376
1024.50 0.5375
1024.60 0.5374
1024.70 0.5373
1024.80 0.5372
1024.90 0.5371
1025.00 0.537
1025.10 0.5369
1025.20 0.5368
1025.30 0.5367
1025.40 0.5366
1025.50 0.5365
1025.60 0.5364
1025.70 0.5363
1025.80 0.5362
1025.90 0.5361
1026.00 0.536
1026.10 0.5359
1026.20 0.5358
1026.30 0.5357
1026.40 0.5356
1026.50 0.5355
1026.60 0.5354
1026.70 0.5353
1026.80 0.5352
1026.90 0.5351
1027.00 0.535
1027.10 0.5349
1027.20 0.5348
1027.30 0.5347
1027.40 0.5346
1027.50 0.5345
1027.60 0.5344
1027.70 0.5343
1027.80 0.5342
1027.90 0.5341
1028.00 0.534
1028.10 0.5339
1028.20 0.5338
1028.30 0.5337
1028.40 0.5336
1028.50 0.5335
1028.60 0.5334
1028.70 0.5333
1028.80 0.5332
1028.90 0.5331
1029.00 0.533
1029.10 0.5329
1029.20 0.5329
1029.30 0.5328
1029.40 0.5327
1029.50 0.5326
1029.60 0.5325
1029.70 0.5324
1029.80 0.5323
1029.90 0.5322
1030.00 0.5321
1030.10 0.532
1030.20 0.5319
1030.30 0.5318
1030.40 0.5317
1030.50 0.5316
1030.60 0.5315
1030.70 0.5314
1030.80 0.5313
1030.90 0.5312
1031.00 0.5311
1031.10 0.531
1031.20 0.5309
1031.30 0.5308
1031.40 0.5307
1031.50 0.5306
1031.60 0.5305
1031.70 0.5304
1031.80 0.5303
1031.90 0.5302
1032.00 0.5301
1032.10 0.53
1032.20 0.5299
1032.30 0.5298
1032.40 0.5297
1032.50 0.5296
1032.60 0.5295
1032.70 0.5294
1032.80 0.5293
1032.90 0.5292
1033.00 0.5291
1033.10 0.529
1033.20 0.5289
1033.30 0.5288
1033.40 0.5287
1033.50 0.5286
1033.60 0.5285
1033.70 0.5284
1033.80 0.5283
1033.90 0.5282
1034.00 0.5281
1034.10 0.528
1034.20 0.5279
1034.30 0.5278
1034.40 0.5277
1034.50 0.5277
1034.60 0.5276
1034.70 0.5275
1034.80 0.5274
1034.90 0.5273
1035.00 0.5272
1035.10 0.5271
1035.20 0.527
1035.30 0.5269
1035.40 0.5268
1035.50 0.5267
1035.60 0.5266
1035.70 0.5265
1035.80 0.5264
1035.90 0.5263
1036.00 0.5262
1036.10 0.5261
1036.20 0.526
1036.30 0.5259
1036.40 0.5258
1036.50 0.5257
1036.60 0.5256
1036.70 0.5255
1036.80 0.5254
1036.90 0.5253
1037.00 0.5252
1037.10 0.5251
1037.20 0.525
1037.30 0.5249
1037.40 0.5248
1037.50 0.5247
1037.60 0.5246
1037.70 0.5245
1037.80 0.5244
1037.90 0.5243
1038.00 0.5242
1038.10 0.5241
1038.20 0.5241
1038.30 0.524
1038.40 0.5239
1038.50 0.5238
1038.60 0.5237
1038.70 0.5236
1038.80 0.5235
1038.90 0.5234
1039.00 0.5233
1039.10 0.5232
1039.20 0.5231
1039.30 0.523
1039.40 0.5229
1039.50 0.5228
1039.60 0.5227
1039.70 0.5226
1039.80 0.5225
1039.90 0.5224
1040.00 0.5223
1040.10 0.5222
1040.20 0.5221
1040.30 0.522
1040.40 0.5219
1040.50 0.5218
1040.60 0.5217
1040.70 0.5216
1040.80 0.5215
1040.90 0.5214
1041.00 0.5213
1041.10 0.5213
1041.20 0.5212
1041.30 0.5211
1041.40 0.521
1041.50 0.5209
1041.60 0.5208
1041.70 0.5207
1041.80 0.5206
1041.90 0.5205
1042.00 0.5204
1042.10 0.5203
1042.20 0.5202
1042.30 0.5201
1042.40 0.52
1042.50 0.5199
1042.60 0.5198
1042.70 0.5197
1042.80 0.5196
1042.90 0.5195
1043.00 0.5194
1043.10 0.5193
1043.20 0.5192
1043.30 0.5191
1043.40 0.519
1043.50 0.5189
1043.60 0.5188
1043.70 0.5188
1043.80 0.5187
1043.90 0.5186
1044.00 0.5185
1044.10 0.5184
1044.20 0.5183
1044.30 0.5182
1044.40 0.5181
1044.50 0.518
1044.60 0.5179
1044.70 0.5178
1044.80 0.5177
1044.90 0.5176
1045.00 0.5175
1045.10 0.5174
1045.20 0.5173
1045.30 0.5172
1045.40 0.5171
1045.50 0.517
1045.60 0.5169
1045.70 0.5168
1045.80 0.5167
1045.90 0.5166
1046.00 0.5165
1046.10 0.5165
1046.20 0.5164
1046.30 0.5163
1046.40 0.5162
1046.50 0.5161
1046.60 0.516
1046.70 0.5159
1046.80 0.5158
1046.90 0.5157
1047.00 0.5156
1047.10 0.5155
1047.20 0.5154
1047.30 0.5153
1047.40 0.5152
1047.50 0.5151
1047.60 0.515
1047.70 0.5149
1047.80 0.5148
1047.90 0.5147
1048.00 0.5146
1048.10 0.5145
1048.20 0.5144
1048.30 0.5144
1048.40 0.5143
1048.50 0.5142
1048.60 0.5141
1048.70 0.514
1048.80 0.5139
1048.90 0.5138
1049.00 0.5137
1049.10 0.5136
1049.20 0.5135
1049.30 0.5134
1049.40 0.5133
1049.50 0.5132
1049.60 0.5131
1049.70 0.513
1049.80 0.5129
1049.90 0.5128
1050.00 0.5127
1050.10 0.5126
1050.20 0.5126
1050.30 0.5125
1050.40 0.5124
1050.50 0.5123
1050.60 0.5122
1050.70 0.5121
1050.80 0.512
1050.90 0.5119
1051.00 0.5118
1051.10 0.5117
1051.20 0.5116
1051.30 0.5115
1051.40 0.5114
1051.50 0.5113
1051.60 0.5112
1051.70 0.5111
1051.80 0.511
1051.90 0.5109
1052.00 0.5109
1052.10 0.5108
1052.20 0.5107
1052.30 0.5106
1052.40 0.5105
1052.50 0.5104
1052.60 0.5103
1052.70 0.5102
1052.80 0.5101
1052.90 0.51
1053.00 0.5099
1053.10 0.5098
1053.20 0.5097
1053.30 0.5096
1053.40 0.5095
1053.50 0.5094
1053.60 0.5093
1053.70 0.5092
1053.80 0.5092
1053.90 0.5091
1054.00 0.509
1054.10 0.5089
1054.20 0.5088
1054.30 0.5087
1054.40 0.5086
1054.50 0.5085
1054.60 0.5084
1054.70 0.5083
1054.80 0.5082
1054.90 0.5081
1055.00 0.508
1055.10 0.5079
1055.20 0.5078
1055.30 0.5077
1055.40 0.5076
1055.50 0.5076
1055.60 0.5075
1055.70 0.5074
1055.80 0.5073
1055.90 0.5072
1056.00 0.5071
1056.10 0.507
1056.20 0.5069
1056.30 0.5068
1056.40 0.5067
1056.50 0.5066
1056.60 0.5065
1056.70 0.5064
1056.80 0.5063
1056.90 0.5062
1057.00 0.5061
1057.10 0.5061
1057.20 0.506
1057.30 0.5059
1057.40 0.5058
1057.50 0.5057
1057.60 0.5056
1057.70 0.5055
1057.80 0.5054
1057.90 0.5053
1058.00 0.5052
1058.10 0.5051
1058.20 0.505
1058.30 0.5049
1058.40 0.5048
1058.50 0.5047
1058.60 0.5047
1058.70 0.5046
1058.80 0.5045
1058.90 0.5044
1059.00 0.5043
1059.10 0.5042
1059.20 0.5041
1059.30 0.504
1059.40 0.5039
1059.50 0.5038
1059.60 0.5037
1059.70 0.5036
1059.80 0.5035
1059.90 0.5034
1060.00 0.5034
1060.10 0.5033
1060.20 0.5032
1060.30 0.5031
1060.40 0.503
1060.50 0.5029
1060.60 0.5028
1060.70 0.5027
1060.80 0.5026
1060.90 0.5025
1061.00 0.5024
1061.10 0.5023
1061.20 0.5022
1061.30 0.5021
1061.40 0.5021
1061.50 0.502
1061.60 0.5019
1061.70 0.5018
1061.80 0.5017
1061.90 0.5016
1062.00 0.5015
1062.10 0.5014
1062.20 0.5013
1062.30 0.5012
1062.40 0.5011
1062.50 0.501
1062.60 0.5009
1062.70 0.5008
1062.80 0.5008
1062.90 0.5007
1063.00 0.5006
1063.10 0.5005
1063.20 0.5004
1063.30 0.5003
1063.40 0.5002
1063.50 0.5001
1063.60 0.5
1063.70 0.4999
1063.80 0.4998
1063.90 0.4997
1064.00 0.4996
1064.10 0.4996
1064.20 0.4995
1064.30 0.4994
1064.40 0.4993
1064.50 0.4992
1064.60 0.4991
1064.70 0.499
1064.80 0.4989
1064.90 0.4988
1065.00 0.4987
1065.10 0.4986
1065.20 0.4985
1065.30 0.4984
1065.40 0.4984
1065.50 0.4983
1065.60 0.4982
1065.70 0.4981
1065.80 0.498
1065.90 0.4979
1066.00 0.4978
1066.10 0.4977
1066.20 0.4976
1066.30 0.4975
1066.40 0.4974
1066.50 0.4973
1066.60 0.4973
1066.70 0.4972
1066.80 0.4971
1066.90 0.497
1067.00 0.4969
1067.10 0.4968
1067.20 0.4967
1067.30 0.4966
1067.40 0.4965
1067.50 0.4964
1067.60 0.4963
1067.70 0.4962
1067.80 0.4962
1067.90 0.4961
1068.00 0.496
1068.10 0.4959
1068.20 0.4958
1068.30 0.4957
1068.40 0.4956
1068.50 0.4955
1068.60 0.4954
1068.70 0.4953
1068.80 0.4952
1068.90 0.4951
1069.00 0.4951
1069.10 0.495
1069.20 0.4949
1069.30 0.4948
1069.40 0.4947
1069.50 0.4946
1069.60 0.4945
1069.70 0.4944
1069.80 0.4943
1069.90 0.4942
1070.00 0.4941
1070.10 0.494
1070.20 0.494
1070.30 0.4939
1070.40 0.4938
1070.50 0.4937
1070.60 0.4936
1070.70 0.4935
1070.80 0.4934
1070.90 0.4933
1071.00 0.4932
1071.10 0.4931
1071.20 0.493
1071.30 0.493
1071.40 0.4929
1071.50 0.4928
1071.60 0.4927
1071.70 0.4926
1071.80 0.4925
1071.90 0.4924
1072.00 0.4923
1072.10 0.4922
1072.20 0.4921
1072.30 0.492
1072.40 0.492
1072.50 0.4919
1072.60 0.4918
1072.70 0.4917
1072.80 0.4916
1072.90 0.4915
1073.00 0.4914
1073.10 0.4913
1073.20 0.4912
1073.30 0.4911
1073.40 0.491
1073.50 0.491
1073.60 0.4909
1073.70 0.4908
1073.80 0.4907
1073.90 0.4906
1074.00 0.4905
1074.10 0.4904
1074.20 0.4903
1074.30 0.4902
1074.40 0.4901
1074.50 0.4901
1074.60 0.49
1074.70 0.4899
1074.80 0.4898
1074.90 0.4897
1075.00 0.4896
1075.10 0.4895
1075.20 0.4894
1075.30 0.4893
1075.40 0.4892
1075.50 0.4891
1075.60 0.4891
1075.70 0.489
1075.80 0.4889
1075.90 0.4888
1076.00 0.4887
1076.10 0.4886
1076.20 0.4885
1076.30 0.4884
1076.40 0.4883
1076.50 0.4882
1076.60 0.4882
1076.70 0.4881
1076.80 0.488
1076.90 0.4879
1077.00 0.4878
1077.10 0.4877
1077.20 0.4876
1077.30 0.4875
1077.40 0.4874
1077.50 0.4873
1077.60 0.4873
1077.70 0.4872
1077.80 0.4871
1077.90 0.487
1078.00 0.4869
1078.10 0.4868
1078.20 0.4867
1078.30 0.4866
1078.40 0.4865
1078.50 0.4864
1078.60 0.4864
1078.70 0.4863
1078.80 0.4862
1078.90 0.4861
1079.00 0.486
1079.10 0.4859
1079.20 0.4858
1079.30 0.4857
1079.40 0.4856
1079.50 0.4855
1079.60 0.4855
1079.70 0.4854
1079.80 0.4853
1079.90 0.4852
1080.00 0.4851
1080.10 0.485
1080.20 0.4849
1080.30 0.4848
1080.40 0.4847
1080.50 0.4847
1080.60 0.4846
1080.70 0.4845
1080.80 0.4844
1080.90 0.4843
1081.00 0.4842
1081.10 0.4841
1081.20 0.484
1081.30 0.4839
1081.40 0.4839
1081.50 0.4838
1081.60 0.4837
1081.70 0.4836
1081.80 0.4835
1081.90 0.4834
1082.00 0.4833
1082.10 0.4832
1082.20 0.4831
1082.30 0.4831
1082.40 0.483
1082.50 0.4829
1082.60 0.4828
1082.70 0.4827
1082.80 0.4826
1082.90 0.4825
1083.00 0.4824
1083.10 0.4823
1083.20 0.4823
1083.30 0.4822
1083.40 0.4821
1083.50 0.482
1083.60 0.4819
1083.70 0.4818
1083.80 0.4817
1083.90 0.4816
1084.00 0.4815
1084.10 0.4815
1084.20 0.4814
1084.30 0.4813
1084.40 0.4812
1084.50 0.4811
1084.60 0.481
1084.70 0.4809
1084.80 0.4808
1084.90 0.4807
1085.00 0.4807
1085.10 0.4806
1085.20 0.4805
1085.30 0.4804
1085.40 0.4803
1085.50 0.4802
1085.60 0.4801
1085.70 0.48
1085.80 0.4799
1085.90 0.4799
1086.00 0.4798
1086.10 0.4797
1086.20 0.4796
1086.30 0.4795
1086.40 0.4794
1086.50 0.4793
1086.60 0.4792
1086.70 0.4792
1086.80 0.4791
1086.90 0.479
1087.00 0.4789
1087.10 0.4788
1087.20 0.4787
1087.30 0.4786
1087.40 0.4785
1087.50 0.4784
1087.60 0.4784
1087.70 0.4783
1087.80 0.4782
1087.90 0.4781
1088.00 0.478
1088.10 0.4779
1088.20 0.4778
1088.30 0.4777
1088.40 0.4776
1088.50 0.4776
1088.60 0.4775
1088.70 0.4774
1088.80 0.4773
1088.90 0.4772
1089.00 0.4771
1089.10 0.477
1089.20 0.4769
1089.30 0.4769
1089.40 0.4768
1089.50 0.4767
1089.60 0.4766
1089.70 0.4765
1089.80 0.4764
1089.90 0.4763
1090.00 0.4762
1090.10 0.4762
1090.20 0.4761
1090.30 0.476
1090.40 0.4759
1090.50 0.4758
1090.60 0.4757
1090.70 0.4756
1090.80 0.4755
1090.90 0.4755
1091.00 0.4754
1091.10 0.4753
1091.20 0.4752
1091.30 0.4751
1091.40 0.475
1091.50 0.4749
1091.60 0.4748
1091.70 0.4748
1091.80 0.4747
1091.90 0.4746
1092.00 0.4745
1092.10 0.4744
1092.20 0.4743
1092.30 0.4742
1092.40 0.4741
1092.50 0.474
1092.60 0.474
1092.70 0.4739
1092.80 0.4738
1092.90 0.4737
1093.00 0.4736
1093.10 0.4734
1093.20 0.4733
1093.30 0.4731
1093.40 0.4727
1093.50 0.4725
1093.60 0.4727
1093.70 0.4728
1093.80 0.4728
1093.90 0.4728
1094.00 0.4727
1094.10 0.4726
1094.20 0.4726
1094.30 0.4725
1094.40 0.4724
1094.50 0.4723
1094.60 0.4722
1094.70 0.4721
1094.80 0.472
1094.90 0.472
1095.00 0.4719
1095.10 0.4718
1095.20 0.4717
1095.30 0.4716
1095.40 0.4715
1095.50 0.4714
1095.60 0.4714
1095.70 0.4713
1095.80 0.4712
1095.90 0.4711
1096.00 0.471
1096.10 0.4709
1096.20 0.4708
1096.30 0.4708
1096.40 0.4707
1096.50 0.4706
1096.60 0.4705
1096.70 0.4704
1096.80 0.4703
1096.90 0.4702
1097.00 0.4701
1097.10 0.4701
1097.20 0.47
1097.30 0.4699
1097.40 0.4698
1097.50 0.4697
1097.60 0.4696
1097.70 0.4695
1097.80 0.4695
1097.90 0.4694
1098.00 0.4693
1098.10 0.4692
1098.20 0.4691
1098.30 0.469
1098.40 0.4689
1098.50 0.4688
1098.60 0.4688
1098.70 0.4687
1098.80 0.4686
1098.90 0.4685
1099.00 0.4684
1099.10 0.4683
1099.20 0.4682
1099.30 0.4682
1099.40 0.4681
1099.50 0.468
1099.60 0.4679
1099.70 0.4678
1099.80 0.4677
1099.90 0.4676
1100.00 0.4676
1100.10 0.4675
1100.20 0.4674
1100.30 0.4673
1100.40 0.4672
1100.50 0.4671
1100.60 0.467
1100.70 0.467
1100.80 0.4669
1100.90 0.4668
1101.00 0.4667
1101.10 0.4666
1101.20 0.4665
1101.30 0.4664
1101.40 0.4664
1101.50 0.4663
1101.60 0.4662
1101.70 0.4661
1101.80 0.466
1101.90 0.4659
1102.00 0.4658
1102.10 0.4658
1102.20 0.4657
1102.30 0.4656
1102.40 0.4655
1102.50 0.4654
1102.60 0.4653
1102.70 0.4652
1102.80 0.4652
1102.90 0.4651
1103.00 0.465
1103.10 0.4649
1103.20 0.4648
1103.30 0.4647
1103.40 0.4646
1103.50 0.4646
1103.60 0.4645
1103.70 0.4644
1103.80 0.4643
1103.90 0.4642
1104.00 0.4641
1104.10 0.464
1104.20 0.464
1104.30 0.4639
1104.40 0.4638
1104.50 0.4637
1104.60 0.4636
1104.70 0.4635
1104.80 0.4635
1104.90 0.4634
1105.00 0.4633
1105.10 0.4632
1105.20 0.4631
1105.30 0.463
1105.40 0.4629
1105.50 0.4629
1105.60 0.4628
1105.70 0.4627
1105.80 0.4626
1105.90 0.4625
1106.00 0.4624
1106.10 0.4623
1106.20 0.4623
1106.30 0.4622
1106.40 0.4621
1106.50 0.462
1106.60 0.4619
1106.70 0.4618
1106.80 0.4617
1106.90 0.4617
1107.00 0.4616
1107.10 0.4615
1107.20 0.4614
1107.30 0.4613
1107.40 0.4612
1107.50 0.4612
1107.60 0.4611
1107.70 0.461
1107.80 0.4609
1107.90 0.4608
1108.00 0.4607
1108.10 0.4606
1108.20 0.4606
1108.30 0.4605
1108.40 0.4604
1108.50 0.4603
1108.60 0.4602
1108.70 0.4601
1108.80 0.4601
1108.90 0.46
1109.00 0.4599
1109.10 0.4598
1109.20 0.4597
1109.30 0.4596
1109.40 0.4596
1109.50 0.4595
1109.60 0.4594
1109.70 0.4593
1109.80 0.4592
1109.90 0.4591
1110.00 0.459
1110.10 0.459
1110.20 0.4589
1110.30 0.4588
1110.40 0.4587
1110.50 0.4586
1110.60 0.4585
1110.70 0.4585
1110.80 0.4584
1110.90 0.4583
1111.00 0.4582
1111.10 0.4581
1111.20 0.458
1111.30 0.458
1111.40 0.4579
1111.50 0.4578
1111.60 0.4577
1111.70 0.4576
1111.80 0.4575
1111.90 0.4575
1112.00 0.4574
1112.10 0.4573
1112.20 0.4572
1112.30 0.4571
1112.40 0.457
1112.50 0.4569
1112.60 0.4569
1112.70 0.4568
1112.80 0.4567
1112.90 0.4566
1113.00 0.4565
1113.10 0.4564
1113.20 0.4564
1113.30 0.4563
1113.40 0.4562
1113.50 0.4561
1113.60 0.456
1113.70 0.4559
1113.80 0.4559
1113.90 0.4558
1114.00 0.4557
1114.10 0.4556
1114.20 0.4555
1114.30 0.4554
1114.40 0.4553
1114.50 0.4553
1114.60 0.4552
1114.70 0.4551
1114.80 0.455
1114.90 0.4549
1115.00 0.4548
1115.10 0.4548
1115.20 0.4547
1115.30 0.4546
1115.40 0.4545
1115.50 0.4544
1115.60 0.4543
1115.70 0.4543
1115.80 0.4542
1115.90 0.4541
1116.00 0.454
1116.10 0.4539
1116.20 0.4538
1116.30 0.4538
1116.40 0.4537
1116.50 0.4536
1116.60 0.4535
1116.70 0.4534
1116.80 0.4534
1116.90 0.4533
1117.00 0.4532
1117.10 0.4531
1117.20 0.453
1117.30 0.4529
1117.40 0.4529
1117.50 0.4528
1117.60 0.4527
1117.70 0.4526
1117.80 0.4525
1117.90 0.4524
1118.00 0.4524
1118.10 0.4523
1118.20 0.4522
1118.30 0.4521
1118.40 0.452
1118.50 0.4519
1118.60 0.4519
1118.70 0.4518
1118.80 0.4517
1118.90 0.4516
1119.00 0.4515
1119.10 0.4514
1119.20 0.4514
1119.30 0.4513
1119.40 0.4512
1119.50 0.4511
1119.60 0.451
1119.70 0.4509
1119.80 0.4509
1119.90 0.4508
1120.00 0.4507
1120.10 0.4506
1120.20 0.4505
1120.30 0.4505
1120.40 0.4504
1120.50 0.4503
1120.60 0.4502
1120.70 0.4501
1120.80 0.45
1120.90 0.45
1121.00 0.4499
1121.10 0.4498
1121.20 0.4497
1121.30 0.4496
1121.40 0.4495
1121.50 0.4495
1121.60 0.4494
1121.70 0.4493
1121.80 0.4492
1121.90 0.4491
1122.00 0.4491
1122.10 0.449
1122.20 0.4489
1122.30 0.4488
1122.40 0.4487
1122.50 0.4486
1122.60 0.4486
1122.70 0.4485
1122.80 0.4484
1122.90 0.4483
1123.00 0.4482
1123.10 0.4481
1123.20 0.4481
1123.30 0.448
1123.40 0.4479
1123.50 0.4478
1123.60 0.4477
1123.70 0.4477
1123.80 0.4476
1123.90 0.4475
1124.00 0.4474
1124.10 0.4473
1124.20 0.4472
1124.30 0.4472
1124.40 0.4471
1124.50 0.447
1124.60 0.4469
1124.70 0.4468
1124.80 0.4468
1124.90 0.4467
1125.00 0.4466
1125.10 0.4465
1125.20 0.4464
1125.30 0.4463
1125.40 0.4463
1125.50 0.4462
1125.60 0.4461
1125.70 0.446
1125.80 0.4459
1125.90 0.4459
1126.00 0.4458
1126.10 0.4457
1126.20 0.4456
1126.30 0.4455
1126.40 0.4454
1126.50 0.4454
1126.60 0.4453
1126.70 0.4452
1126.80 0.4451
1126.90 0.445
1127.00 0.445
1127.10 0.4449
1127.20 0.4448
1127.30 0.4447
1127.40 0.4446
1127.50 0.4446
1127.60 0.4445
1127.70 0.4444
1127.80 0.4443
1127.90 0.4442
1128.00 0.4441
1128.10 0.4441
1128.20 0.444
1128.30 0.4439
1128.40 0.4438
1128.50 0.4437
1128.60 0.4437
1128.70 0.4436
1128.80 0.4435
1128.90 0.4434
1129.00 0.4433
1129.10 0.4433
1129.20 0.4432
1129.30 0.4431
1129.40 0.443
1129.50 0.4429
1129.60 0.4428
1129.70 0.4428
1129.80 0.4427
1129.90 0.4426
1130.00 0.4425
1130.10 0.4424
1130.20 0.4424
1130.30 0.4423
1130.40 0.4422
1130.50 0.4421
1130.60 0.442
1130.70 0.442
1130.80 0.4419
1130.90 0.4418
1131.00 0.4417
1131.10 0.4416
1131.20 0.4416
1131.30 0.4415
1131.40 0.4414
1131.50 0.4413
1131.60 0.4412
1131.70 0.4411
1131.80 0.4411
1131.90 0.441
1132.00 0.4409
1132.10 0.4408
1132.20 0.4407
1132.30 0.4407
1132.40 0.4406
1132.50 0.4405
1132.60 0.4404
1132.70 0.4403
1132.80 0.4403
1132.90 0.4402
1133.00 0.4401
1133.10 0.44
1133.20 0.4399
1133.30 0.4399
1133.40 0.4398
1133.50 0.4397
1133.60 0.4396
1133.70 0.4395
1133.80 0.4395
1133.90 0.4394
1134.00 0.4393
1134.10 0.4392
1134.20 0.4391
1134.30 0.4391
1134.40 0.439
1134.50 0.4389
1134.60 0.4388
1134.70 0.4387
1134.80 0.4387
1134.90 0.4386
1135.00 0.4385
1135.10 0.4384
1135.20 0.4383
1135.30 0.4383
1135.40 0.4382
1135.50 0.4381
1135.60 0.438
1135.70 0.4379
1135.80 0.4379
1135.90 0.4378
1136.00 0.4377
1136.10 0.4376
1136.20 0.4375
1136.30 0.4375
1136.40 0.4374
1136.50 0.4373
1136.60 0.4372
1136.70 0.4371
1136.80 0.4371
1136.90 0.437
1137.00 0.4369
1137.10 0.4368
1137.20 0.4367
1137.30 0.4367
1137.40 0.4366
1137.50 0.4365
1137.60 0.4364
1137.70 0.4363
1137.80 0.4363
1137.90 0.4362
1138.00 0.4361
1138.10 0.436
1138.20 0.4359
1138.30 0.4359
1138.40 0.4358
1138.50 0.4357
1138.60 0.4356
1138.70 0.4355
1138.80 0.4355
1138.90 0.4354
1139.00 0.4353
1139.10 0.4352
1139.20 0.4351
1139.30 0.4351
1139.40 0.435
1139.50 0.4349
1139.60 0.4348
1139.70 0.4348
1139.80 0.4347
1139.90 0.4346
1140.00 0.4345
1140.10 0.4344
1140.20 0.4344
1140.30 0.4343
1140.40 0.4342
1140.50 0.4341
1140.60 0.434
1140.70 0.434
1140.80 0.4339
1140.90 0.4338
1141.00 0.4337
1141.10 0.4336
1141.20 0.4336
1141.30 0.4335
1141.40 0.4334
1141.50 0.4333
1141.60 0.4332
1141.70 0.4332
1141.80 0.4331
1141.90 0.433
1142.00 0.4329
1142.10 0.4329
1142.20 0.4328
1142.30 0.4327
1142.40 0.4326
1142.50 0.4325
1142.60 0.4325
1142.70 0.4324
1142.80 0.4323
1142.90 0.4322
1143.00 0.4321
1143.10 0.4321
1143.20 0.432
1143.30 0.4319
1143.40 0.4318
1143.50 0.4317
1143.60 0.4317
1143.70 0.4316
1143.80 0.4315
1143.90 0.4314
1144.00 0.4314
1144.10 0.4313
1144.20 0.4312
1144.30 0.4311
1144.40 0.431
1144.50 0.431
1144.60 0.4309
1144.70 0.4308
1144.80 0.4307
1144.90 0.4306
1145.00 0.4306
1145.10 0.4305
1145.20 0.4304
1145.30 0.4303
1145.40 0.4303
1145.50 0.4302
1145.60 0.4301
1145.70 0.43
1145.80 0.4299
1145.90 0.4299
1146.00 0.4298
1146.10 0.4297
1146.20 0.4296
1146.30 0.4295
1146.40 0.4295
1146.50 0.4294
1146.60 0.4293
1146.70 0.4292
1146.80 0.4292
1146.90 0.4291
1147.00 0.429
1147.10 0.4289
1147.20 0.4288
1147.30 0.4288
1147.40 0.4287
1147.50 0.4286
1147.60 0.4285
1147.70 0.4285
1147.80 0.4284
1147.90 0.4283
1148.00 0.4282
1148.10 0.4281
1148.20 0.4281
1148.30 0.428
1148.40 0.4279
1148.50 0.4278
1148.60 0.4277
1148.70 0.4277
1148.80 0.4276
1148.90 0.4275
1149.00 0.4274
1149.10 0.4274
1149.20 0.4273
1149.30 0.4272
1149.40 0.4271
1149.50 0.427
1149.60 0.427
1149.70 0.4269
1149.80 0.4268
1149.90 0.4267
1150.00 0.4267
1150.10 0.4266
1150.20 0.4265
1150.30 0.4264
1150.40 0.4264
1150.50 0.4263
1150.60 0.4262
1150.70 0.4261
1150.80 0.426
1150.90 0.426
1151.00 0.4259
1151.10 0.4258
1151.20 0.4257
1151.30 0.4257
1151.40 0.4256
1151.50 0.4255
1151.60 0.4254
1151.70 0.4253
1151.80 0.4253
1151.90 0.4252
1152.00 0.4251
1152.10 0.425
1152.20 0.425
1152.30 0.4249
1152.40 0.4248
1152.50 0.4247
1152.60 0.4246
1152.70 0.4246
1152.80 0.4245
1152.90 0.4244
1153.00 0.4243
1153.10 0.4243
1153.20 0.4242
1153.30 0.4241
1153.40 0.424
1153.50 0.424
1153.60 0.4239
1153.70 0.4238
1153.80 0.4237
1153.90 0.4236
1154.00 0.4236
1154.10 0.4235
1154.20 0.4234
1154.30 0.4233
1154.40 0.4233
1154.50 0.4232
1154.60 0.4231
1154.70 0.423
1154.80 0.4229
1154.90 0.4229
1155.00 0.4228
1155.10 0.4227
1155.20 0.4226
1155.30 0.4226
1155.40 0.4225
1155.50 0.4224
1155.60 0.4223
1155.70 0.4223
1155.80 0.4222
1155.90 0.4221
1156.00 0.422
1156.10 0.422
1156.20 0.4219
1156.30 0.4218
1156.40 0.4217
1156.50 0.4216
1156.60 0.4216
1156.70 0.4215
1156.80 0.4214
1156.90 0.4213
1157.00 0.4213
1157.10 0.4212
1157.20 0.4211
1157.30 0.421
1157.40 0.421
1157.50 0.4209
1157.60 0.4208
1157.70 0.4207
1157.80 0.4206
1157.90 0.4206
1158.00 0.4205
1158.10 0.4204
1158.20 0.4203
1158.30 0.4203
1158.40 0.4202
1158.50 0.4201
1158.60 0.42
1158.70 0.42
1158.80 0.4199
1158.90 0.4198
1159.00 0.4197
1159.10 0.4197
1159.20 0.4196
1159.30 0.4195
1159.40 0.4194
1159.50 0.4194
1159.60 0.4193
1159.70 0.4192
1159.80 0.4191
1159.90 0.419
1160.00 0.419
1160.10 0.4189
1160.20 0.4188
1160.30 0.4187
1160.40 0.4187
1160.50 0.4186
1160.60 0.4185
1160.70 0.4184
1160.80 0.4184
1160.90 0.4183
1161.00 0.4182
1161.10 0.4181
1161.20 0.4181
1161.30 0.418
1161.40 0.4179
1161.50 0.4178
1161.60 0.4178
1161.70 0.4177
1161.80 0.4176
1161.90 0.4175
1162.00 0.4175
1162.10 0.4174
1162.20 0.4173
1162.30 0.4172
1162.40 0.4171
1162.50 0.4171
1162.60 0.417
1162.70 0.4169
1162.80 0.4168
1162.90 0.4168
1163.00 0.4167
1163.10 0.4166
1163.20 0.4165
1163.30 0.4165
1163.40 0.4164
1163.50 0.4163
1163.60 0.4162
1163.70 0.4162
1163.80 0.4161
1163.90 0.416
1164.00 0.4159
1164.10 0.4159
1164.20 0.4158
1164.30 0.4157
1164.40 0.4156
1164.50 0.4156
1164.60 0.4155
1164.70 0.4154
1164.80 0.4153
1164.90 0.4153
1165.00 0.4152
1165.10 0.4151
1165.20 0.415
1165.30 0.415
1165.40 0.4149
1165.50 0.4148
1165.60 0.4147
1165.70 0.4147
1165.80 0.4146
1165.90 0.4145
1166.00 0.4144
1166.10 0.4144
1166.20 0.4143
1166.30 0.4142
1166.40 0.4141
1166.50 0.4141
1166.60 0.414
1166.70 0.4139
1166.80 0.4138
1166.90 0.4138
1167.00 0.4137
1167.10 0.4136
1167.20 0.4135
1167.30 0.4135
1167.40 0.4134
1167.50 0.4133
1167.60 0.4132
1167.70 0.4132
1167.80 0.4131
1167.90 0.413
1168.00 0.4129
1168.10 0.4129
1168.20 0.4128
1168.30 0.4127
1168.40 0.4126
1168.50 0.4126
1168.60 0.4125
1168.70 0.4124
1168.80 0.4123
1168.90 0.4123
1169.00 0.4122
1169.10 0.4121
1169.20 0.412
1169.30 0.412
1169.40 0.4119
1169.50 0.4118
1169.60 0.4117
1169.70 0.4117
1169.80 0.4116
1169.90 0.4115
1170.00 0.4114
1170.10 0.4114
1170.20 0.4113
1170.30 0.4112
1170.40 0.4111
1170.50 0.4111
1170.60 0.411
1170.70 0.4109
1170.80 0.4108
1170.90 0.4108
1171.00 0.4107
1171.10 0.4106
1171.20 0.4105
1171.30 0.4105
1171.40 0.4104
1171.50 0.4103
1171.60 0.4103
1171.70 0.4102
1171.80 0.4101
1171.90 0.41
1172.00 0.41
1172.10 0.4099
1172.20 0.4098
1172.30 0.4097
1172.40 0.4097
1172.50 0.4096
1172.60 0.4095
1172.70 0.4094
1172.80 0.4094
1172.90 0.4093
1173.00 0.4092
1173.10 0.4091
1173.20 0.4091
1173.30 0.409
1173.40 0.4089
1173.50 0.4088
1173.60 0.4088
1173.70 0.4087
1173.80 0.4086
1173.90 0.4085
1174.00 0.4085
1174.10 0.4084
1174.20 0.4083
1174.30 0.4083
1174.40 0.4082
1174.50 0.4081
1174.60 0.408
1174.70 0.408
1174.80 0.4079
1174.90 0.4078
1175.00 0.4077
1175.10 0.4077
1175.20 0.4076
1175.30 0.4075
1175.40 0.4074
1175.50 0.4074
1175.60 0.4073
1175.70 0.4072
1175.80 0.4071
1175.90 0.4071
1176.00 0.407
1176.10 0.4069
1176.20 0.4069
1176.30 0.4068
1176.40 0.4067
1176.50 0.4066
1176.60 0.4066
1176.70 0.4065
1176.80 0.4064
1176.90 0.4063
1177.00 0.4063
1177.10 0.4062
1177.20 0.4061
1177.30 0.406
1177.40 0.406
1177.50 0.4059
1177.60 0.4058
1177.70 0.4058
1177.80 0.4057
1177.90 0.4056
1178.00 0.4055
1178.10 0.4055
1178.20 0.4054
1178.30 0.4053
1178.40 0.4052
1178.50 0.4052
1178.60 0.4051
1178.70 0.405
1178.80 0.4049
1178.90 0.4049
1179.00 0.4048
1179.10 0.4047
1179.20 0.4047
1179.30 0.4046
1179.40 0.4045
1179.50 0.4044
1179.60 0.4044
1179.70 0.4043
1179.80 0.4042
1179.90 0.4041
1180.00 0.4041
1180.10 0.404
1180.20 0.4039
1180.30 0.4038
1180.40 0.4038
1180.50 0.4037
1180.60 0.4036
1180.70 0.4036
1180.80 0.4035
1180.90 0.4034
1181.00 0.4033
1181.10 0.4033
1181.20 0.4032
1181.30 0.4031
1181.40 0.403
1181.50 0.403
1181.60 0.4029
1181.70 0.4028
1181.80 0.4028
1181.90 0.4027
1182.00 0.4026
1182.10 0.4025
1182.20 0.4025
1182.30 0.4024
1182.40 0.4023
1182.50 0.4022
1182.60 0.4022
1182.70 0.4021
1182.80 0.402
1182.90 0.402
1183.00 0.4019
1183.10 0.4018
1183.20 0.4017
1183.30 0.4017
1183.40 0.4016
1183.50 0.4015
1183.60 0.4014
1183.70 0.4014
1183.80 0.4013
1183.90 0.4012
1184.00 0.4012
1184.10 0.4011
1184.20 0.401
1184.30 0.4009
1184.40 0.4009
1184.50 0.4008
1184.60 0.4007
1184.70 0.4007
1184.80 0.4006
1184.90 0.4005
1185.00 0.4004
1185.10 0.4004
1185.20 0.4003
1185.30 0.4002
1185.40 0.4001
1185.50 0.4001
1185.60 0.4
1185.70 0.3999
1185.80 0.3999
1185.90 0.3998
1186.00 0.3997
1186.10 0.3996
1186.20 0.3996
1186.30 0.3995
1186.40 0.3994
1186.50 0.3994
1186.60 0.3993
1186.70 0.3992
1186.80 0.3991
1186.90 0.3991
1187.00 0.399
1187.10 0.3989
1187.20 0.3988
1187.30 0.3988
1187.40 0.3987
1187.50 0.3986
1187.60 0.3986
1187.70 0.3985
1187.80 0.3984
1187.90 0.3983
1188.00 0.3983
1188.10 0.3982
1188.20 0.3981
1188.30 0.3981
1188.40 0.398
1188.50 0.3979
1188.60 0.3978
1188.70 0.3978
1188.80 0.3977
1188.90 0.3976
1189.00 0.3976
1189.10 0.3975
1189.20 0.3974
1189.30 0.3973
1189.40 0.3973
1189.50 0.3972
1189.60 0.3971
1189.70 0.3971
1189.80 0.397
1189.90 0.3969
1190.00 0.3968
1190.10 0.3968
1190.20 0.3967
1190.30 0.3966
1190.40 0.3966
1190.50 0.3965
1190.60 0.3964
1190.70 0.3963
1190.80 0.3963
1190.90 0.3962
1191.00 0.3961
1191.10 0.3961
1191.20 0.396
1191.30 0.3959
1191.40 0.3958
1191.50 0.3958
1191.60 0.3957
1191.70 0.3956
1191.80 0.3956
1191.90 0.3955
1192.00 0.3954
1192.10 0.3953
1192.20 0.3953
1192.30 0.3952
1192.40 0.3951
1192.50 0.3951
1192.60 0.395
1192.70 0.3949
1192.80 0.3948
1192.90 0.3948
1193.00 0.3947
1193.10 0.3946
1193.20 0.3946
1193.30 0.3945
1193.40 0.3944
1193.50 0.3943
1193.60 0.3943
1193.70 0.3942
1193.80 0.3941
1193.90 0.3941
1194.00 0.394
1194.10 0.3939
1194.20 0.3939
1194.30 0.3938
1194.40 0.3937
1194.50 0.3936
1194.60 0.3936
1194.70 0.3935
1194.80 0.3934
1194.90 0.3934
1195.00 0.3933
1195.10 0.3932
1195.20 0.3931
1195.30 0.3931
1195.40 0.393
1195.50 0.3929
1195.60 0.3929
1195.70 0.3928
1195.80 0.3927
1195.90 0.3927
1196.00 0.3926
1196.10 0.3925
1196.20 0.3924
1196.30 0.3924
1196.40 0.3923
1196.50 0.3922
1196.60 0.3922
1196.70 0.3921
1196.80 0.392
1196.90 0.3919
1197.00 0.3919
1197.10 0.3918
1197.20 0.3917
1197.30 0.3917
1197.40 0.3916
1197.50 0.3915
1197.60 0.3915
1197.70 0.3914
1197.80 0.3913
1197.90 0.3912
1198.00 0.3912
1198.10 0.3911
1198.20 0.391
1198.30 0.391
1198.40 0.3909
1198.50 0.3908
1198.60 0.3908
1198.70 0.3907
1198.80 0.3906
1198.90 0.3905
1199.00 0.3905
1199.10 0.3904
1199.20 0.3903
1199.30 0.3903
1199.40 0.3902
1199.50 0.3901
1199.60 0.3901
1199.70 0.39
1199.80 0.3899
1199.90 0.3898
1200.00 0
